# N Sco 2012
# 2012-07-19T01:06:17.200
# 
#     Wavelength       Flux    Uncertainty       Counts  Uncertainty
# 
       2678.9381      0.00000      0.00000      0.00000      6.00000
       2684.6478      0.00000      0.00000      0.00000      6.00000
       2690.3575      0.00000      0.00000      0.00000      6.00000
       2696.0672      0.00000      0.00000      6.03318      7.04009
       2701.7769      0.00000      0.00000      5.98280      7.53453
       2707.4866      0.00000      0.00000      2.09846      6.70806
       2713.1963      0.00000      0.00000      4.20026      6.76433
       2718.9060      0.00000      0.00000      15.1210      7.65717
       2724.6157      0.00000      0.00000      23.3543      7.69098
       2730.3253      0.00000      0.00000      15.8718      7.64539
       2736.0350      0.00000      0.00000      4.82299      7.56895
       2741.7447      0.00000      0.00000      18.4495      7.28725
       2747.4544      0.00000      0.00000      36.4177      8.32622
       2753.1641      0.00000      0.00000      4.41990      7.23393
       2758.8738      0.00000      0.00000      6.63862      7.30639
       2764.5835      0.00000      0.00000      2.30893      6.38030
       2770.2932      0.00000      0.00000      8.43082      7.24329
       2776.0028      0.00000      0.00000      8.45952      7.53023
       2781.7125      0.00000      0.00000      2.47771      6.62574
       2787.4222      0.00000      0.00000      4.83556      6.67768
       2793.1319      0.00000      0.00000      8.03123      7.12554
       2798.8416      0.00000      0.00000      1.54181      6.37135
       2804.5513      0.00000      0.00000      6.40217      7.45588
       2810.2610      0.00000      0.00000      6.85263      7.20677
       2815.9707      0.00000      0.00000      0.00000      6.00000
       2821.6803      0.00000      0.00000      0.00000      6.00000
       2827.3900      0.00000      0.00000      20.9901      7.35316
       2833.0997      0.00000      0.00000      4.68918      6.30229
       2838.8094      0.00000      0.00000      2.62418      7.10592
       2844.5191      0.00000      0.00000      1.21817      6.51338
       2850.2288      0.00000      0.00000      12.3506      6.85783
       2855.9385      0.00000      0.00000      15.9619      7.31355
       2861.6482      0.00000      0.00000      6.24045      6.65095
       2867.3579      0.00000      0.00000      0.00000      6.00000
       2873.0675      0.00000      0.00000     0.902451      6.43428
       2878.7772      0.00000      0.00000      4.94830      7.37801
       2884.4869      0.00000      0.00000      9.32322      7.09371
       2890.1966      0.00000      0.00000      0.00000      6.00000
       2895.9063      0.00000      0.00000      1.26666      6.07030
       2901.6160      0.00000      0.00000      28.5146      7.58257
       2907.3257      0.00000      0.00000      8.17854      7.47330
       2913.0354      0.00000      0.00000      31.1175      8.59923
       2918.7450      0.00000      0.00000      19.3815      7.78773
       2924.4547      0.00000      0.00000      6.47028      7.28269
       2930.1644      0.00000      0.00000      20.4717      8.09753
       2935.8741      0.00000      0.00000      24.0043      8.00352
       2941.5838      0.00000      0.00000      14.5911      7.35187
       2947.2935      0.00000      0.00000      5.02725      6.58449
       2953.0032      0.00000      0.00000      11.6077      6.92966
       2958.7129      0.00000      0.00000      18.0085      7.44229
       2964.4226      0.00000      0.00000      3.73858      6.35122
       2970.1322      0.00000      0.00000      9.60099      6.90195
       2975.8419      0.00000      0.00000      0.00000      6.00000
       2981.5516      0.00000      0.00000     0.628506      6.14541
       2987.2613      0.00000      0.00000      5.66039      7.18778
       2992.9710      0.00000      0.00000      13.5820      7.26040
       2998.6807      0.00000      0.00000      31.4187      7.51544
       3004.3904      0.00000      0.00000      3.25274      6.15394
       3010.1001      0.00000      0.00000      13.3824      7.16463
       3015.8097      0.00000      0.00000      16.7093      7.28348
       3021.5194      0.00000      0.00000      4.44936      6.33052
       3027.2291      0.00000      0.00000      14.7157      6.92123
       3032.9388      0.00000      0.00000      24.6832      7.69771
       3038.6485      0.00000      0.00000      19.4909      7.45274
       3044.3582      0.00000      0.00000      14.2518      7.21000
       3050.0679      0.00000      0.00000      37.3020      8.06084
       3055.7776      0.00000      0.00000      40.7566      8.20991
       3061.4872      0.00000      0.00000      13.0346      7.39132
       3067.1969      0.00000      0.00000      17.5556      7.54709
       3072.9066      0.00000      0.00000      19.9469      7.48112
       3078.6163      0.00000      0.00000      25.6104      7.94517
       3084.3260      0.00000      0.00000      53.0807      9.16304
       3090.0357      0.00000      0.00000      13.9719      7.77035
       3095.7454      0.00000      0.00000     0.837297      7.34049
       3101.4551      0.00000      0.00000     0.349541      6.08769
       3107.1648      0.00000      0.00000      7.69412      7.93012
       3112.8744      0.00000      0.00000      30.4220      8.74538
       3118.5841      0.00000      0.00000      23.7841      8.04542
       3124.2938      0.00000      0.00000      12.4489      8.19344
       3130.0035      0.00000      0.00000      76.3074      9.83574
       3135.7132      0.00000      0.00000      74.7919      10.3023
       3141.4229      0.00000      0.00000      96.4495      11.0428
       3147.1326      0.00000      0.00000      80.9938      10.4279
       3152.8423      0.00000      0.00000      57.1629      9.40130
       3158.5519      0.00000      0.00000      57.3015      9.70845
       3164.2616      0.00000      0.00000      53.8387      9.58533
       3169.9713      0.00000      0.00000      71.6791      10.0092
       3175.6810      0.00000      0.00000      109.576      11.6572
       3181.3907      0.00000      0.00000      98.9706      11.2224
       3187.1004      0.00000      0.00000      59.2755      9.61170
       3192.8101      0.00000      0.00000      47.7206      10.0143
       3198.5198      0.00000      0.00000      56.3016      10.6649
       3204.2294      0.00000      0.00000      80.6347      10.7842
       3209.9391      0.00000      0.00000      75.5428      10.6873
       3215.6488      0.00000      0.00000      92.7629      11.5260
       3221.3585      0.00000      0.00000      122.075      12.4918
       3227.0682      0.00000      0.00000      95.7336      12.0647
       3232.7779      0.00000      0.00000      77.0309      11.0004
       3238.4876  4.29273e-14  3.87289e-15      146.829      13.2468
       3244.1973  3.50522e-14  3.53810e-15      124.457      12.5625
       3249.9070  3.27663e-14  3.48034e-15      120.748      12.8255
       3255.6166  3.78635e-14  3.58138e-15      144.100      13.6299
       3261.3263  5.00498e-14  3.81717e-15      196.845      15.0128
       3267.0360  3.11767e-14  3.32457e-15      126.543      13.4942
       3272.7457  4.68808e-14  3.66596e-15      195.675      15.3013
       3278.4554  4.24112e-14  3.41505e-15      181.678      14.6291
       3284.1651  3.90951e-14  3.28719e-15      171.983      14.4606
       3289.8748  4.50439e-14  3.38443e-15      203.606      15.2982
       3295.5845  4.35322e-14  3.16595e-15      202.200      14.7053
       3301.2941  2.70719e-14  2.66279e-15      129.105      12.6987
       3307.0038  2.52722e-14  2.58644e-15      123.482      12.6375
       3312.7135  2.70825e-14  2.71488e-15      135.422      13.5754
       3318.4232  2.39360e-14  2.53192e-15      122.456      12.9532
       3324.1329  1.98528e-14  2.25734e-15      103.913      11.8153
       3329.8426  1.60711e-14  2.06851e-15      85.9518      11.0628
       3335.5523  2.52375e-14  2.30731e-15      137.733      12.5921
       3341.2620  2.96873e-14  2.44460e-15      165.262      13.6085
       3346.9716  2.51194e-14  2.31944e-15      142.722      13.1785
       3352.6813  2.42609e-14  2.28581e-15      140.515      13.2391
       3358.3910  2.84073e-14  2.41603e-15      167.490      14.2449
       3364.1007  2.72640e-14  2.48259e-15      163.770      14.9125
       3369.8104  2.45843e-14  2.39113e-15      150.501      14.6382
       3375.5201  2.70227e-14  2.32423e-15      168.427      14.4864
       3381.2298  2.31825e-14  2.22909e-15      146.914      14.1263
       3386.9395  2.60908e-14  2.27547e-15      167.972      14.6494
       3392.6492  3.39059e-14  2.45825e-15      221.714      16.0748
       3398.3588  3.78597e-14  2.48333e-15      251.607      16.5037
       3404.0685  3.12629e-14  2.33199e-15      211.152      15.7505
       3409.7782  3.13058e-14  2.33872e-15      214.956      16.0584
       3415.4879  2.60015e-14  2.15556e-15      181.576      15.0529
       3421.1976  2.28641e-14  2.04419e-15      162.452      14.5242
       3426.9073  3.24597e-14  2.32820e-15      234.769      16.8390
       3432.6170  2.69354e-14  2.12974e-15      198.338      15.6822
       3438.3267  2.65872e-14  2.12515e-15      199.158      15.9190
       3444.0363  3.17654e-14  2.21044e-15      241.834      16.8283
       3449.7460  2.36006e-14  1.89345e-15      182.556      14.6462
       3455.4557  3.11358e-14  2.19600e-15      244.793      17.2652
       3461.1654  3.51822e-14  2.21278e-15      281.438      17.7010
       3466.8751  3.45790e-14  2.22668e-15      281.570      18.1314
       3472.5848  3.45840e-14  2.13268e-15      286.688      17.6791
       3478.2945  3.18944e-14  2.06660e-15      269.120      17.4377
       3484.0042  4.24252e-14  2.32222e-15      364.065      19.9278
       3489.7139  4.33593e-14  2.25281e-15      378.373      19.6590
       3495.4235  3.32199e-14  2.05448e-15      294.758      18.2292
       3501.1332  3.12250e-14  2.01817e-15      281.645      18.2036
       3506.8429  2.38577e-14  1.74283e-15      218.676      15.9745
       3512.5526  2.93159e-14  1.87440e-15      273.145      17.4643
       3518.2623  2.73398e-14  1.82420e-15      258.864      17.2723
       3523.9720  1.82291e-14  1.58868e-15      175.284      15.2762
       3529.6817  2.21884e-14  1.59890e-15      216.597      15.6080
       3535.3914  1.68107e-14  1.48999e-15      166.593      14.7657
       3541.1010  1.75107e-14  1.45495e-15      176.183      14.6389
       3546.8107  1.66501e-14  1.47762e-15      170.105      15.0961
       3552.5204  1.42162e-14  1.38964e-15      147.518      14.4199
       3558.2301  1.14865e-14  1.32767e-15      121.146      14.0027
       3563.9398  2.30306e-14  1.56432e-15      247.077      16.7823
       3569.6495  2.19636e-14  1.50867e-15      239.747      16.4681
       3575.3592  2.35725e-14  1.56376e-15      261.259      17.3315
       3581.0689  1.47956e-14  1.27452e-15      166.232      14.3196
       3586.7785  1.88567e-14  1.41786e-15      214.572      16.1339
       3592.4882  2.28021e-14  1.53094e-15      263.047      17.6611
       3598.1979  2.06032e-14  1.40909e-15      241.378      16.5083
       3603.9076  1.98471e-14  1.41673e-15      236.448      16.8782
       3609.6173  2.29472e-14  1.48036e-15      278.079      17.9394
       3615.3270  2.01428e-14  1.39797e-15      248.474      17.2448
       3621.0367  1.98881e-14  1.35383e-15      249.983      17.0168
       3626.7464  2.18050e-14  1.37808e-15      279.478      17.6630
       3632.4561  2.24267e-14  1.39984e-15      293.115      18.2957
       3638.1657  2.25617e-14  1.36556e-15      300.861      18.2098
       3643.8754  1.99403e-14  1.28720e-15      271.621      17.5338
       3649.5851  1.92015e-14  1.27175e-15      267.111      17.6912
       3655.2948  1.69468e-14  1.18643e-15      240.733      16.8535
       3661.0045  1.52321e-14  1.15849e-15      220.917      16.8020
       3666.7142  1.58691e-14  1.15535e-15      234.894      17.1014
       3672.4239  1.75001e-14  1.15705e-15      264.310      17.4753
       3678.1336  1.93294e-14  1.19686e-15      297.988      18.4511
       3683.8432  1.99014e-14  1.18963e-15      313.409      18.7344
       3689.5529  2.06299e-14  1.20248e-15      332.206      19.3636
       3695.2626  2.15878e-14  1.21299e-15      355.691      19.9858
       3700.9723  2.05578e-14  1.16457e-15      346.697      19.6399
       3706.6820  2.05548e-14  1.15539e-15      354.718      19.9388
       3712.3917  2.04289e-14  1.14691e-15      360.366      20.2316
       3718.1014  1.95018e-14  1.10871e-15      351.353      19.9750
       3723.8111  2.13802e-14  1.12325e-15      393.165      20.6557
       3729.5207  2.20242e-14  1.13247e-15      413.266      21.2498
       3735.2304  2.07230e-14  1.09717e-15      396.604      20.9981
       3740.9401  2.20987e-14  1.11358e-15      431.058      21.7216
       3746.6498  2.34270e-14  1.14165e-15      465.480      22.6840
       3752.3595  2.61673e-14  1.19415e-15      529.472      24.1625
       3758.0692  2.99201e-14  1.25080e-15      616.443      25.7703
       3763.7789  3.05089e-14  1.24496e-15      639.946      26.1140
       3769.4886  3.01399e-14  1.22626e-15      643.539      26.1828
       3775.1983  2.63480e-14  1.13973e-15      572.531      24.7660
       3780.9079  2.36323e-14  1.07431e-15      522.499      23.7526
       3786.6176  2.20125e-14  1.03942e-15      495.118      23.3791
       3792.3273  2.03876e-14  1.00984e-15      466.366      23.1001
       3798.0370  1.89115e-14  9.56422e-16      439.673      22.2359
       3803.7467  1.78856e-14  9.11596e-16      422.294      21.5235
       3809.4564  1.78643e-14  9.06024e-16      428.167      21.7153
       3815.1661  1.72276e-14  8.90871e-16      419.198      21.6775
       3820.8758  1.69252e-14  8.94627e-16      418.242      22.1073
       3826.5854  1.72978e-14  8.91609e-16      434.077      22.3744
       3832.2951  1.84630e-14  8.97362e-16      470.299      22.8581
       3838.0048  1.96670e-14  9.18391e-16      508.270      23.7348
       3843.7145  1.99888e-14  9.14596e-16      523.863      23.9696
       3849.4242  1.94010e-14  8.96171e-16      515.302      23.8028
       3855.1339  1.83160e-14  8.61754e-16      492.790      23.1854
       3860.8436  1.58819e-14  8.06748e-16      432.812      21.9855
       3866.5533  1.45696e-14  7.81415e-16      401.770      21.5482
       3872.2629  1.44519e-14  7.68272e-16      403.256      21.4374
       3877.9726  1.58981e-14  7.92186e-16      449.010      22.3737
       3883.6823  1.87178e-14  8.51814e-16      535.193      24.3558
       3889.3920  2.14788e-14  8.95878e-16      621.815      25.9358
       3895.1017  2.16335e-14  8.95405e-16      634.266      26.2521
       3900.8114  1.95311e-14  8.58600e-16      580.137      25.5031
       3906.5211  1.61952e-14  7.99664e-16      487.500      24.0711
       3912.2308  1.46565e-14  7.58907e-16      447.073      23.1493
       3917.9405  1.70814e-14  7.76886e-16      527.841      24.0069
       3923.6501  1.95111e-14  8.22937e-16      610.685      25.7574
       3929.3598  2.08134e-14  8.48045e-16      659.884      26.8871
       3935.0695  2.08457e-14  8.51488e-16      669.518      27.3479
       3940.7792  2.09476e-14  8.45051e-16      681.399      27.4885
       3946.4889  1.99287e-14  8.15441e-16      656.281      26.8537
       3952.1986  1.95713e-14  8.00540e-16      652.306      26.6818
       3957.9083  1.96593e-14  8.00972e-16      663.223      27.0214
       3963.6180  2.31007e-14  8.58585e-16      789.199      29.3323
       3969.3276  2.57635e-14  8.93468e-16      891.969      30.9331
       3975.0373  2.68291e-14  9.04870e-16      941.773      31.7634
       3980.7470  2.60685e-14  8.91801e-16      927.735      31.7378
       3986.4567  2.19342e-14  8.12427e-16      790.974      29.2972
       3992.1664  1.73054e-14  7.20345e-16      631.952      26.3053
       3997.8761  1.49804e-14  6.83014e-16      553.734      25.2469
       4003.5858  1.48286e-14  6.77023e-16      554.662      25.3241
       4009.2955  1.39682e-14  6.55538e-16      528.529      24.8043
       4015.0052  1.44363e-14  6.54120e-16      552.257      25.0231
       4020.7148  1.49748e-14  6.58289e-16      578.819      25.4447
       4026.4245  1.51523e-14  6.58132e-16      591.666      25.6987
       4032.1342  1.43379e-14  6.36177e-16      565.807      25.1049
       4037.8439  1.36820e-14  6.28263e-16      545.997      25.0716
       4043.5536  1.42258e-14  6.33227e-16      574.305      25.5638
       4049.2633  1.47479e-14  6.36935e-16      602.055      26.0016
       4054.9730  1.57391e-14  6.55055e-16      649.351      27.0256
       4060.6827  1.61866e-14  6.59484e-16      674.743      27.4908
       4066.3923  1.76276e-14  6.90121e-16      742.521      29.0696
       4072.1020  1.90434e-14  7.12878e-16      810.668      30.3468
       4077.8117  1.94148e-14  7.10932e-16      835.076      30.5789
       4083.5214  1.89044e-14  6.95230e-16      821.159      30.1990
       4089.2311  2.20256e-14  7.36966e-16      965.698      32.3118
       4094.9408  2.72636e-14  8.09468e-16      1206.44      35.8198
       4100.6505  3.26282e-14  8.77414e-16      1457.80      39.2022
       4106.3602  3.46926e-14  9.02238e-16      1566.00      40.7263
       4112.0698  3.24549e-14  8.73910e-16      1480.53      39.8662
       4117.7795  2.86119e-14  8.18356e-16      1318.82      37.7208
       4123.4892  2.44004e-14  7.66424e-16      1136.13      35.6862
       4129.1989  2.20707e-14  7.15345e-16      1038.02      33.6439
       4134.9086  2.05425e-14  6.80017e-16      975.840      32.3032
       4140.6183  1.87570e-14  6.55464e-16      899.824      31.4444
       4146.3280  1.95682e-14  6.64279e-16      947.662      32.1702
       4152.0377  1.80782e-14  6.39229e-16      883.305      31.2328
       4157.7474  2.01367e-14  6.74014e-16      992.553      33.2227
       4163.4570  2.46185e-14  7.42111e-16      1224.46      36.9107
       4169.1667  2.93467e-14  7.88184e-16      1473.23      39.5674
       4174.8764  2.91603e-14  7.92966e-16      1477.70      40.1834
       4180.5861  2.84668e-14  7.85026e-16      1456.01      40.1521
       4186.2958  2.36660e-14  7.03291e-16      1221.51      36.3002
       4192.0055  1.96076e-14  6.46637e-16      1021.06      33.6735
       4197.7152  1.73441e-14  5.99152e-16      911.123      31.4747
       4203.4249  1.54281e-14  5.74391e-16      817.566      30.4381
       4209.1345  1.60473e-14  5.79416e-16      857.941      30.9776
       4214.8442  2.02471e-14  6.39728e-16      1092.27      34.5116
       4220.5539  2.30421e-14  6.79571e-16      1254.31      36.9930
       4226.2636  3.13104e-14  7.78347e-16      1719.66      42.7492
       4231.9733  3.58621e-14  8.35922e-16      1987.30      46.3225
       4237.6830  3.64627e-14  8.32092e-16      2038.94      46.5293
       4243.3927  3.25665e-14  7.85407e-16      1837.67      44.3190
       4249.1024  2.79016e-14  7.17911e-16      1588.66      40.8763
       4254.8120  2.51687e-14  6.88317e-16      1445.95      39.5442
       4260.5217  2.11702e-14  6.37249e-16      1226.18      36.9095
       4266.2314  1.84582e-14  6.02131e-16      1077.89      35.1621
       4271.9411  2.06331e-14  6.12756e-16      1215.12      36.0862
       4277.6508  2.36961e-14  6.48326e-16      1407.31      38.5041
       4283.3605  2.46871e-14  6.70724e-16      1478.11      40.1589
       4289.0702  3.14790e-14  7.34334e-16      1899.28      44.3059
       4294.7799  3.11039e-14  7.40557e-16      1890.63      45.0144
       4300.4896  3.08585e-14  7.28986e-16      1889.66      44.6404
       4306.1992  3.11753e-14  7.30671e-16      1923.71      45.0871
       4311.9089  3.03611e-14  7.19063e-16      1888.37      44.7236
       4317.6186  2.54435e-14  6.63730e-16      1595.40      41.6183
       4323.3283  2.65345e-14  6.67177e-16      1677.64      42.1823
       4329.0380  3.45502e-14  7.55869e-16      2202.62      48.1877
       4334.7477  4.54582e-14  8.61390e-16      2921.45      55.3588
       4340.4574  5.68734e-14  9.52643e-16      3682.77      61.6872
       4346.1671  5.93204e-14  9.75122e-16      3868.29      63.5878
       4351.8767  5.64009e-14  9.42667e-16      3702.40      61.8807
       4357.5864  4.69865e-14  8.62197e-16      3104.76      56.9720
       4363.2961  3.78215e-14  7.84102e-16      2516.07      52.1622
       4369.0058  3.13167e-14  7.12940e-16      2097.77      47.7567
       4374.7155  3.04647e-14  6.97063e-16      2054.93      47.0188
       4380.4252  3.16239e-14  7.02003e-16      2147.94      47.6810
       4386.1349  3.21279e-14  7.02694e-16      2197.24      48.0577
       4391.8446  3.07083e-14  6.91124e-16      2114.56      47.5905
       4397.5542  2.94644e-14  6.72835e-16      2042.73      46.6469
       4403.2639  2.78276e-14  6.53364e-16      1942.57      45.6096
       4408.9736  2.80982e-14  6.52309e-16      1974.98      45.8497
       4414.6833  2.58806e-14  6.30351e-16      1831.61      44.6110
       4420.3930  2.30420e-14  6.00431e-16      1641.79      42.7820
       4426.1027  2.15370e-14  5.74380e-16      1544.46      41.1900
       4431.8124  1.96591e-14  5.48311e-16      1418.59      39.5658
       4437.5221  2.06995e-14  5.59733e-16      1502.76      40.6359
       4443.2318  2.16694e-14  5.68829e-16      1582.34      41.5371
       4448.9414  2.33109e-14  5.87589e-16      1711.55      43.1425
       4454.6511  2.41075e-14  5.89281e-16      1779.39      43.4952
       4460.3608  2.34424e-14  5.82270e-16      1739.29      43.2010
       4466.0705  2.30950e-14  5.82033e-16      1722.62      43.4131
       4471.7802  2.47247e-14  5.96485e-16      1854.26      44.7342
       4477.4899  2.74247e-14  6.25876e-16      2068.13      47.1980
       4483.1996  3.00852e-14  6.49857e-16      2281.45      49.2806
       4488.9093  3.26354e-14  6.73013e-16      2488.57      51.3197
       4494.6189  3.64322e-14  7.08985e-16      2793.42      54.3611
       4500.3286  4.07583e-14  7.46988e-16      3142.36      57.5909
       4506.0383  4.45558e-14  7.77751e-16      3454.07      60.2930
       4511.7480  5.04583e-14  8.23547e-16      3932.27      64.1799
       4517.4577  5.30752e-14  8.41167e-16      4158.33      65.9037
       4523.1674  5.00789e-14  8.14600e-16      3944.61      64.1643
       4528.8771  4.74906e-14  7.90637e-16      3760.70      62.6092
       4534.5868  4.50277e-14  7.69423e-16      3584.60      61.2528
       4540.2965  4.47695e-14  7.68688e-16      3582.72      61.5150
       4546.0061  4.75500e-14  7.87979e-16      3825.11      63.3882
       4551.7158  4.88478e-14  7.96554e-16      3949.77      64.4082
       4557.4255  4.76421e-14  7.86821e-16      3871.87      63.9449
       4563.1352  4.70451e-14  7.79327e-16      3842.78      63.6577
       4568.8449  4.86725e-14  7.89488e-16      3995.23      64.8042
       4574.5546  5.09453e-14  8.04657e-16      4201.29      66.3574
       4580.2643  5.22961e-14  8.10105e-16      4332.76      67.1177
       4585.9740  4.91386e-14  7.86876e-16      4089.62      65.4887
       4591.6836  4.31322e-14  7.37483e-16      3605.47      61.6470
       4597.3933  3.59641e-14  6.74833e-16      3018.77      56.6445
       4603.1030  3.05272e-14  6.24271e-16      2572.27      52.6022
       4608.8127  3.20188e-14  6.37315e-16      2707.90      53.8992
       4614.5224  3.72105e-14  6.82197e-16      3158.34      57.9034
       4620.2321  4.49968e-14  7.45383e-16      3832.93      63.4933
       4625.9418  5.07231e-14  7.87249e-16      4335.85      67.2946
       4631.6515  5.06285e-14  7.86872e-16      4342.94      67.4982
       4637.3611  5.01997e-14  7.81079e-16      4320.65      67.2270
       4643.0708  4.52424e-14  7.42065e-16      3906.68      64.0773
       4648.7805  4.05498e-14  7.02735e-16      3513.78      60.8945
       4654.4902  4.02310e-14  6.96570e-16      3499.51      60.5914
       4660.1999  3.88611e-14  6.85125e-16      3394.69      59.8486
       4665.9096  3.70715e-14  6.70946e-16      3253.60      58.8858
       4671.6193  3.72463e-14  6.71984e-16      3285.82      59.2816
       4677.3290  3.56534e-14  6.51507e-16      3162.87      57.7963
       4683.0387  3.30419e-14  6.27966e-16      2948.63      56.0390
       4688.7483  2.80513e-14  5.80353e-16      2518.89      52.1133
       4694.4580  2.69035e-14  5.66946e-16      2431.55      51.2407
       4700.1677  2.37856e-14  5.30034e-16      2164.21      48.2268
       4705.8774  2.12528e-14  5.05886e-16      1947.09      46.3469
       4711.5871  2.07676e-14  4.93416e-16      1916.05      45.5232
       4717.2968  2.08226e-14  4.98342e-16      1935.09      46.3120
       4723.0065  1.87548e-14  4.71022e-16      1756.09      44.1038
       4728.7162  1.95259e-14  4.80022e-16      1842.56      45.2971
       4734.4258  1.84519e-14  4.63249e-16      1754.96      44.0596
       4740.1355  1.80311e-14  4.54294e-16      1728.45      43.5483
       4745.8452  1.61850e-14  4.35694e-16      1563.75      42.0956
       4751.5549  1.56809e-14  4.25259e-16      1527.32      41.4201
       4757.2646  1.50714e-14  4.11695e-16      1479.83      40.4233
       4762.9743  1.47973e-14  4.05929e-16      1464.59      40.1775
       4768.6840  1.41331e-14  4.00476e-16      1409.79      39.9480
       4774.3937  1.41889e-14  3.99188e-16      1426.05      40.1203
       4780.1033  1.36775e-14  3.91822e-16      1384.51      39.6623
       4785.8130  1.32061e-14  3.86254e-16      1345.84      39.3633
       4791.5227  1.36912e-14  3.92089e-16      1404.16      40.2124
       4797.2324  1.45750e-14  4.02025e-16      1503.73      41.4779
       4802.9421  1.54193e-14  4.11900e-16      1599.94      42.7398
       4808.6518  1.73820e-14  4.29534e-16      1813.74      44.8202
       4814.3615  1.88672e-14  4.47443e-16      1979.69      46.9492
       4820.0712  2.03551e-14  4.60693e-16      2147.30      48.5993
       4825.7809  2.24423e-14  4.80437e-16      2379.90      50.9480
       4831.4905  2.48429e-14  5.00392e-16      2647.90      53.3348
       4837.2002  3.18311e-14  5.58964e-16      3409.39      59.8699
       4842.9099  4.76841e-14  6.76170e-16      5131.56      72.7666
       4848.6196  7.40373e-14  8.35917e-16      8003.46      90.3630
       4854.3293  9.97548e-14  9.68265e-16      10831.0      105.131
       4860.0390  1.15828e-13  1.04173e-15      12631.5      113.605
       4865.7487  1.17183e-13  1.04526e-15      12834.9      114.487
       4871.4584  1.00727e-13  9.65373e-16      11078.8      106.180
       4877.1680  7.19037e-14  8.15573e-16      7940.30      90.0634
       4882.8777  4.73330e-14  6.65450e-16      5246.90      73.7657
       4888.5874  3.35863e-14  5.64206e-16      3737.10      62.7784
       4894.2971  3.15636e-14  5.47647e-16      3525.14      61.1632
       4900.0068  4.01873e-14  6.11724e-16      4504.94      68.5734
       4905.7165  5.63159e-14  7.17562e-16      6336.05      80.7323
       4911.4262  7.50865e-14  8.26992e-16      8478.05      93.3760
       4917.1359  8.77270e-14  8.90209e-16      9940.00      100.866
       4922.8455  9.27874e-14  9.13925e-16      10549.2      103.906
       4928.5552  8.86687e-14  8.93190e-16      10113.2      101.874
       4934.2649  7.48098e-14  8.20418e-16      8557.60      93.8488
       4939.9746  5.63006e-14  7.12099e-16      6459.12      81.6960
       4945.6843  3.90962e-14  5.95333e-16      4497.96      68.4921
       4951.3940  2.80203e-14  5.09393e-16      3232.67      58.7682
       4957.1037  2.31527e-14  4.66125e-16      2678.48      53.9248
       4962.8134  2.21055e-14  4.55397e-16      2563.84      52.8178
       4968.5231  2.29042e-14  4.63158e-16      2662.84      53.8466
       4974.2327  2.44679e-14  4.78229e-16      2851.33      55.7299
       4979.9424  2.66672e-14  4.97666e-16      3114.90      58.1304
       4985.6521  2.95732e-14  5.21303e-16      3462.23      61.0305
       4991.3618  3.66623e-14  5.75324e-16      4301.78      67.5059
       4997.0715  5.00964e-14  6.64386e-16      5890.72      78.1237
       5002.7812  6.91777e-14  7.76188e-16      8150.34      91.4485
       5008.4909  8.98769e-14  8.83067e-16      10607.8      104.225
       5014.2006  1.01109e-13  9.35786e-16      11954.7      110.644
       5019.9102  1.03477e-13  9.44050e-16      12256.6      111.820
       5025.6199  9.53203e-14  9.06620e-16      11310.8      107.580
       5031.3296  7.65989e-14  8.14119e-16      9106.46      96.7866
       5037.0393  5.74017e-14  7.06609e-16      6837.49      84.1687
       5042.7490  4.24885e-14  6.08739e-16      5071.08      72.6541
       5048.4587  3.42499e-14  5.50492e-16      4095.90      65.8326
       5054.1684  2.99418e-14  5.14206e-16      3588.06      61.6195
       5059.8781  2.65849e-14  4.86185e-16      3192.35      58.3819
       5065.5878  2.46397e-14  4.69363e-16      2965.08      56.4820
       5071.2974  2.28304e-14  4.53110e-16      2753.25      54.6432
       5077.0071  2.14521e-14  4.39895e-16      2592.62      53.1641
       5082.7168  2.10175e-14  4.36026e-16      2545.89      52.8167
       5088.4265  2.09386e-14  4.34342e-16      2542.45      52.7397
       5094.1362  2.15889e-14  4.40745e-16      2627.82      53.6480
       5099.8459  2.16404e-14  4.39767e-16      2640.56      53.6604
       5105.5556  2.20304e-14  4.43483e-16      2694.91      54.2499
       5111.2653  2.31348e-14  4.53616e-16      2837.14      55.6291
       5116.9749  2.38857e-14  4.58369e-16      2937.99      56.3805
       5122.6846  2.45976e-14  4.64962e-16      3034.75      57.3650
       5128.3943  2.72911e-14  4.85197e-16      3377.53      60.0476
       5134.1040  3.11437e-14  5.15734e-16      3866.42      64.0273
       5139.8137  3.75075e-14  5.61859e-16      4671.82      69.9835
       5145.5234  4.98305e-14  6.43922e-16      6227.39      80.4719
       5151.2331  7.02283e-14  7.60232e-16      8806.06      95.3270
       5156.9428  9.16069e-14  8.63387e-16      11525.7      108.628
       5162.6524  1.05800e-13  9.25255e-16      13356.9      116.811
       5168.3621  1.10018e-13  9.41835e-16      13937.1      119.312
       5174.0718  1.07497e-13  9.27010e-16      13664.4      117.836
       5179.7815  9.75538e-14  8.84022e-16      12443.1      112.758
       5185.4912  8.44374e-14  8.23221e-16      10807.1      105.364
       5191.2009  6.97549e-14  7.49587e-16      8959.27      96.2765
       5196.9106  5.77204e-14  6.82790e-16      7439.85      88.0081
       5202.6203  4.90018e-14  6.29580e-16      6338.42      81.4367
       5208.3300  4.31063e-14  5.90779e-16      5595.84      76.6920
       5214.0396  4.15238e-14  5.78569e-16      5410.25      75.3835
       5219.7493  4.41935e-14  5.95497e-16      5779.32      77.8750
       5225.4590  4.78456e-14  6.16688e-16      6279.98      80.9435
       5231.1687  5.03828e-14  6.31068e-16      6637.41      83.1366
       5236.8784  5.12123e-14  6.36154e-16      6768.48      84.0773
       5242.5881  4.88427e-14  6.20745e-16      6475.76      82.3008
       5248.2978  4.66030e-14  6.06696e-16      6197.51      80.6815
       5254.0075  4.75794e-14  6.10848e-16      6346.00      81.4733
       5259.7171  5.32014e-14  6.41927e-16      7115.75      85.8586
       5265.4268  6.06446e-14  6.82918e-16      8134.29      91.6001
       5271.1365  6.47807e-14  7.05101e-16      8714.04      94.8474
       5276.8462  6.41718e-14  7.01555e-16      8656.83      94.6405
       5282.5559  6.10444e-14  6.83979e-16      8258.28      92.5309
       5288.2656  5.66859e-14  6.59232e-16      7690.41      89.4360
       5293.9753  5.73575e-14  6.62117e-16      7803.64      90.0828
       5299.6850  6.53959e-14  7.03271e-16      8922.36      95.9516
       5305.3946  7.66479e-14  7.59692e-16      10486.5      103.936
       5311.1043  8.42178e-14  7.94385e-16      11553.2      108.976
       5316.8140  8.48371e-14  7.95631e-16      11669.1      109.437
       5322.5237  7.80869e-14  7.62459e-16      10769.3      105.154
       5328.2334  6.54392e-14  6.98431e-16      9048.65      96.5759
       5333.9431  4.96632e-14  6.10339e-16      6884.65      84.6092
       5339.6528  3.89227e-14  5.43146e-16      5409.45      75.4860
       5345.3625  3.53435e-14  5.18535e-16      4923.88      72.2399
       5351.0722  3.53045e-14  5.18029e-16      4927.97      72.3089
       5356.7818  3.60674e-14  5.22529e-16      5043.07      73.0621
       5362.4915  3.55080e-14  5.18207e-16      4973.02      72.5769
       5368.2012  3.32979e-14  5.01697e-16      4671.44      70.3842
       5373.9109  2.98422e-14  4.76390e-16      4193.61      66.9454
       5379.6206  2.64335e-14  4.49456e-16      3720.41      63.2593
       5385.3303  2.36683e-14  4.26300e-16      3336.44      60.0941
       5391.0400  2.21662e-14  4.12834e-16      3129.59      58.2872
       5396.7497  2.29348e-14  4.19683e-16      3243.16      59.3466
       5402.4593  2.37979e-14  4.25727e-16      3370.24      60.2910
       5408.1690  2.60779e-14  4.43691e-16      3698.66      62.9291
       5413.8787  2.86521e-14  4.62424e-16      4069.55      65.6796
       5419.5884  2.94063e-14  4.69892e-16      4182.61      66.8352
       5425.2981  2.84053e-14  4.63475e-16      4046.21      66.0199
       5431.0078  2.70378e-14  4.52313e-16      3857.09      64.5251
       5436.7175  2.55636e-14  4.39531e-16      3652.13      62.7935
       5442.4272  2.24628e-14  4.12881e-16      3213.77      59.0713
       5448.1369  2.04670e-14  3.95724e-16      2931.37      56.6773
       5453.8465  1.94576e-14  3.85833e-16      2789.65      55.3171
       5459.5562  2.04614e-14  3.95059e-16      2936.56      56.6976
       5465.2659  2.03301e-14  3.93150e-16      2921.06      56.4885
       5470.9756  2.03896e-14  3.92394e-16      2934.38      56.4716
       5476.6853  2.05478e-14  3.96028e-16      2962.65      57.1006
       5482.3950  2.12091e-14  4.01252e-16      3064.01      57.9677
       5488.1047  2.14724e-14  4.02063e-16      3108.17      58.1996
       5493.8144  2.24266e-14  4.10420e-16      3253.02      59.5322
       5499.5240  2.27634e-14  4.12598e-16      3308.98      59.9771
       5505.2337  2.46356e-14  4.28119e-16      3588.86      62.3674
       5510.9434  2.65198e-14  4.42314e-16      3871.69      64.5744
       5516.6531  3.05815e-14  4.72244e-16      4474.32      69.0932
       5522.3628  3.28970e-14  4.89824e-16      4823.78      71.8243
       5528.0725  3.48511e-14  5.02631e-16      5121.67      73.8660
       5533.7822  3.62275e-14  5.10149e-16      5336.20      75.1435
       5539.4919  3.61927e-14  5.09930e-16      5343.42      75.2850
       5545.2015  3.49236e-14  5.01733e-16      5168.01      74.2467
       5550.9112  3.74183e-14  5.16485e-16      5549.90      76.6053
       5556.6209  3.88534e-14  5.26602e-16      5775.48      78.2784
       5562.3306  4.48187e-14  5.65385e-16      6671.38      84.1589
       5568.0403  4.96989e-14  5.98333e-16      7410.64      89.2179
       5573.7500  5.16930e-14  6.14538e-16      7721.74      91.7978
       5579.4597  4.95119e-14  6.01910e-16      7409.17      90.0724
       5585.1694  4.51864e-14  5.69503e-16      6774.01      85.3758
       5590.8791  3.86106e-14  5.23011e-16      5798.63      78.5471
       5596.5887  3.15899e-14  4.73738e-16      4752.76      71.2747
       5602.2984  2.64136e-14  4.34525e-16      3981.01      65.4908
       5608.0081  2.38283e-14  4.14826e-16      3597.74      62.6327
       5613.7178  2.30479e-14  4.08057e-16      3486.10      61.7204
       5619.4275  2.44815e-14  4.18543e-16      3709.89      63.4255
       5625.1372  2.67270e-14  4.36589e-16      4057.81      66.2848
       5630.8469  2.78713e-14  4.45324e-16      4239.53      67.7386
       5636.5566  3.07611e-14  4.64345e-16      4687.96      70.7658
       5642.2662  3.38325e-14  4.85994e-16      5165.85      74.2058
       5647.9759  3.56626e-14  4.98005e-16      5455.54      76.1832
       5653.6856  3.81775e-14  5.13411e-16      5851.21      78.6870
       5659.3953  3.98247e-14  5.23103e-16      6115.09      80.3226
       5665.1050  4.07197e-14  5.29144e-16      6263.46      81.3922
       5670.8147  4.05501e-14  5.28537e-16      6248.29      81.4413
       5676.5244  4.05601e-14  5.28301e-16      6260.82      81.5481
       5682.2341  3.86713e-14  5.16354e-16      5979.79      79.8443
       5687.9437  3.87386e-14  5.16625e-16      6000.77      80.0274
       5693.6534  3.92684e-14  5.17789e-16      6093.04      80.3422
       5699.3631  3.97211e-14  5.19833e-16      6173.04      80.7870
       5705.0728  4.13344e-14  5.29812e-16      6433.37      82.4610
       5710.7825  4.39600e-14  5.45534e-16      6851.91      85.0307
       5716.4922  4.77080e-14  5.66397e-16      7446.64      88.4077
       5722.2019  5.24876e-14  5.92385e-16      8204.12      92.5932
       5727.9116  5.92448e-14  6.27289e-16      9273.16      98.1850
       5733.6213  6.72937e-14  6.67391e-16      10547.7      104.607
       5739.3309  7.14560e-14  6.86535e-16      11214.6      107.748
       5745.0406  7.14442e-14  6.86069e-16      11227.4      107.815
       5750.7503  7.03832e-14  6.80754e-16      11074.8      107.116
       5756.4600  7.04411e-14  6.80402e-16      11098.0      107.197
       5762.1697  6.85361e-14  6.70824e-16      10811.7      105.823
       5767.8794  6.35810e-14  6.46682e-16      10042.8      102.146
       5773.5891  5.72444e-14  6.13841e-16      9053.58      97.0829
       5779.2988  4.96216e-14  5.71920e-16      7858.12      90.5697
       5785.0084  4.11418e-14  5.22180e-16      6523.67      82.7996
       5790.7181  3.82374e-14  5.05524e-16      6070.88      80.2611
       5796.4278  3.71014e-14  4.98820e-16      5897.33      79.2882
       5802.1375  3.56425e-14  4.88447e-16      5671.80      77.7268
       5807.8472  3.45383e-14  4.81419e-16      5502.30      76.6948
       5813.5569  3.35736e-14  4.75744e-16      5354.53      75.8747
       5819.2666  3.39264e-14  4.77875e-16      5416.23      76.2911
       5824.9763  3.38072e-14  4.77301e-16      5401.34      76.2578
       5830.6859  3.40790e-14  4.78377e-16      5447.47      76.4678
       5836.3956  3.39554e-14  4.77132e-16      5429.81      76.2982
       5842.1053  3.40470e-14  4.77413e-16      5447.89      76.3912
       5847.8150  3.39916e-14  4.76280e-16      5444.63      76.2887
       5853.5247  3.25557e-14  4.67245e-16      5219.90      74.9169
       5859.2344  3.03806e-14  4.52189e-16      4876.07      72.5761
       5864.9441  2.90019e-14  4.42849e-16      4659.47      71.1483
       5870.6538  3.34707e-14  4.73451e-16      5382.65      76.1389
       5876.3635  4.10400e-14  5.21974e-16      6605.88      84.0181
       5882.0731  4.85788e-14  5.66194e-16      7825.79      91.2108
       5887.7828  5.28076e-14  5.91582e-16      8513.42      95.3723
       5893.4925  5.85675e-14  6.20506e-16      9448.47      100.104
       5899.2022  6.32838e-14  6.41378e-16      10215.2      103.530
       5904.9119  6.36617e-14  6.42561e-16      10282.1      103.781
       5910.6216  5.74802e-14  6.10939e-16      9288.15      98.7208
       5916.3313  5.04313e-14  5.73692e-16      8153.37      92.7506
       5922.0410  4.46203e-14  5.41177e-16      7217.23      87.5340
       5927.7506  4.00229e-14  5.14635e-16      6476.12      83.2734
       5933.4603  3.82911e-14  5.03191e-16      6199.02      81.4625
       5939.1700  3.63143e-14  4.91590e-16      5882.78      79.6357
       5944.8797  3.66885e-14  4.93605e-16      5948.94      80.0367
       5950.5894  3.47753e-14  4.79740e-16      5645.39      77.8804
       5956.2991  3.52018e-14  4.82668e-16      5722.00      78.4570
       5962.0088  3.55786e-14  4.84383e-16      5790.50      78.8345
       5967.7185  3.59037e-14  4.87250e-16      5850.66      79.3996
       5973.4282  3.76262e-14  4.97456e-16      6138.92      81.1627
       5979.1378  3.95679e-14  5.08936e-16      6463.71      83.1386
       5984.8475  4.17652e-14  5.21097e-16      6831.21      85.2316
       5990.5572  4.16844e-14  5.20431e-16      6826.78      85.2325
       5996.2669  4.23133e-14  5.22685e-16      6939.05      85.7161
       6001.9766  3.84976e-14  4.98717e-16      6321.77      81.8953
       6007.6863  3.52701e-14  4.78939e-16      5799.81      78.7566
       6013.3960  3.32047e-14  4.64905e-16      5467.71      76.5544
       6019.1057  3.04627e-14  4.46151e-16      5023.59      73.5746
       6024.8153  3.01386e-14  4.44292e-16      4977.47      73.3761
       6030.5250  2.99179e-14  4.41894e-16      4948.91      73.0965
       6036.2347  2.77082e-14  4.26561e-16      4590.88      70.6754
       6041.9444  2.89287e-14  4.34181e-16      4801.08      72.0576
       6047.6541  2.96775e-14  4.39654e-16      4932.65      73.0742
       6053.3638  2.90363e-14  4.33759e-16      4832.46      72.1898
       6059.0735  2.97537e-14  4.38357e-16      4958.72      73.0560
       6064.7832  2.89692e-14  4.32817e-16      4834.38      72.2284
       6070.4928  2.87609e-14  4.30866e-16      4804.94      71.9825
       6076.2025  2.90088e-14  4.33141e-16      4851.66      72.4418
       6081.9122  3.04148e-14  4.42193e-16      5092.72      74.0418
       6087.6219  3.09657e-14  4.45275e-16      5190.98      74.6442
       6093.3316  3.20382e-14  4.52386e-16      5376.11      75.9118
       6099.0413  3.21562e-14  4.53810e-16      5401.14      76.2246
       6104.7510  3.35789e-14  4.61678e-16      5645.03      77.6138
       6110.4607  3.47629e-14  4.70413e-16      5848.61      79.1436
       6116.1704  3.65091e-14  4.80708e-16      6147.11      80.9377
       6121.8800  3.92845e-14  4.97976e-16      6619.53      83.9101
       6127.5897  4.22630e-14  5.15178e-16      7126.80      86.8744
       6133.2994  4.63031e-14  5.38006e-16      7813.58      90.7877
       6139.0091  5.09991e-14  5.63589e-16      8610.31      95.1521
       6144.7188  5.35911e-14  5.76055e-16      9051.70      97.2974
       6150.4285  5.34648e-14  5.75075e-16      9032.91      97.1592
       6156.1382  5.14465e-14  5.64694e-16      8694.50      95.4339
       6161.8479  4.74186e-14  5.43729e-16      8016.43      91.9210
       6167.5575  4.32053e-14  5.19761e-16      7308.36      87.9197
       6173.2672  3.93502e-14  4.97120e-16      6660.99      84.1498
       6178.9769  3.62903e-14  4.77806e-16      6147.79      80.9432
       6184.6866  3.33953e-14  4.58986e-16      5661.74      77.8150
       6190.3963  3.22984e-14  4.52159e-16      5479.02      76.7032
       6196.1060  3.05916e-14  4.41110e-16      5190.36      74.8415
       6201.8157  2.97450e-14  4.35114e-16      5045.76      73.8100
       6207.5254  3.06386e-14  4.41152e-16      5195.68      74.8104
       6213.2350  3.33213e-14  4.59063e-16      5648.81      77.8228
       6218.9447  3.80184e-14  4.89155e-16      6441.05      82.8723
       6224.6544  4.52820e-14  5.31479e-16      7664.85      89.9629
       6230.3641  5.32850e-14  5.75721e-16      9012.37      97.3747
       6236.0738  5.80410e-14  6.00625e-16      9809.34      101.510
       6241.7835  5.93558e-14  6.07553e-16      10024.2      102.606
       6247.4932  5.89072e-14  6.05613e-16      9941.64      102.208
       6253.2029  5.69014e-14  5.95372e-16      9596.81      100.414
       6258.9126  5.30174e-14  5.75757e-16      8937.23      97.0563
       6264.6222  5.30673e-14  5.76202e-16      8943.04      97.1030
       6270.3319  5.84362e-14  6.02847e-16      9846.01      101.575
       6276.0416  6.85397e-14  6.50681e-16      11546.4      109.616
       6281.7513  8.21126e-14  7.11316e-16      13830.7      119.811
       6287.4610  9.53611e-14  7.69688e-16      16059.7      129.623
       6293.1707  1.04734e-13  8.13873e-16      17635.6      137.044
       6298.8804  1.08910e-13  8.35302e-16      18337.8      140.644
       6304.5901  1.06478e-13  8.22403e-16      17932.1      138.502
       6310.2997  9.86528e-14  7.83707e-16      16624.0      132.063
       6316.0094  8.70619e-14  7.32254e-16      14687.0      123.528
       6321.7191  7.54988e-14  6.82105e-16      12754.4      115.232
       6327.4288  6.69766e-14  6.43569e-16      11331.9      108.886
       6333.1385  6.22925e-14  6.20780e-16      10557.0      105.206
       6338.8482  6.15004e-14  6.16249e-16      10441.6      104.627
       6344.5579  6.48376e-14  6.31879e-16      11029.0      107.484
       6350.2676  6.76834e-14  6.45665e-16      11533.3      110.022
       6355.9772  7.01783e-14  6.58982e-16      11979.0      112.484
       6361.6869  7.20856e-14  6.70278e-16      12324.8      114.601
       6367.3966  7.13084e-14  6.64727e-16      12209.9      113.819
       6373.1063  6.85903e-14  6.48448e-16      11759.9      111.177
       6378.8160  6.38098e-14  6.24203e-16      10952.8      107.143
       6384.5257  5.79765e-14  5.95098e-16      9961.02      102.244
       6390.2354  5.31742e-14  5.70706e-16      9143.63      98.1364
       6395.9451  5.00802e-14  5.53653e-16      8618.64      95.2819
       6401.6548  4.86386e-14  5.46269e-16      8377.03      94.0839
       6407.3644  5.08925e-14  5.58078e-16      8771.65      96.1884
       6413.0741  5.25599e-14  5.66788e-16      9064.16      97.7448
       6418.7838  5.42699e-14  5.75838e-16      9361.70      99.3336
       6424.4935  5.73574e-14  5.90538e-16      9894.63      101.873
       6430.2032  6.35365e-14  6.20068e-16      10960.9      106.970
       6435.9129  6.94060e-14  6.47119e-16      11973.0      111.632
       6441.6226  7.47694e-14  6.71714e-16      12896.2      115.857
       6447.3323  7.99691e-14  6.93872e-16      13789.5      119.648
       6453.0419  8.20320e-14  7.02551e-16      14140.0      121.100
       6458.7516  8.08720e-14  6.98932e-16      13937.5      120.454
       6464.4613  7.88456e-14  6.91389e-16      13589.0      119.161
       6470.1710  7.47763e-14  6.73525e-16      12887.7      116.082
       6475.8807  6.99926e-14  6.52618e-16      12060.7      112.456
       6481.5904  6.57504e-14  6.32361e-16      11328.0      108.948
       6487.3001  6.33515e-14  6.21831e-16      10913.8      107.126
       6493.0098  6.57074e-14  6.33363e-16      11320.7      109.122
       6498.7195  6.89201e-14  6.48544e-16      11878.0      111.773
       6504.4291  7.39760e-14  6.71170e-16      12752.9      115.704
       6510.1388  8.63285e-14  7.21756e-16      14887.9      124.472
       6515.8485  1.10103e-13  8.11627e-16      18992.6      140.004
       6521.5582  1.50055e-13  9.43818e-16      25889.7      162.842
       6527.2679  2.26259e-13  1.15396e-15      39046.7      199.145
       6532.9776  4.16057e-13  1.55689e-15      71819.1      268.748
       6538.6873  7.99422e-13  2.15269e-15      138066.      371.786
       6544.3970  1.36883e-12  2.81565e-15      236563.      486.602
       6550.1066  2.12047e-12  3.50415e-15      366733.      606.037
       6555.8163  2.64314e-12  3.91258e-15      457468.      677.180
       6561.5260  2.73598e-12  3.98004e-15      473930.      689.426
       6567.2357  2.76358e-12  3.99775e-15      479128.      693.100
       6572.9454  2.77003e-12  4.00058e-15      480623.      694.134
       6578.6551  2.36293e-12  3.69459e-15      410218.      641.403
       6584.3648  1.49392e-12  2.93866e-15      259442.      510.345
       6590.0745  8.81742e-13  2.25872e-15      153164.      392.352
       6595.7841  4.80758e-13  1.67001e-15      83529.4      290.156
       6601.4938  2.71537e-13  1.25841e-15      47186.3      218.680
       6607.2035  1.66230e-13  9.88915e-16      28893.5      171.889
       6612.9132  1.10408e-13  8.09510e-16      19196.5      140.749
       6618.6229  8.61204e-14  7.17156e-16      14975.4      124.705
       6624.3326  7.37453e-14  6.65979e-16      12823.9      115.810
       6630.0423  6.85498e-14  6.43210e-16      11919.5      111.842
       6635.7520  6.40602e-14  6.22722e-16      11139.7      108.287
       6641.4617  5.91389e-14  5.99420e-16      10284.5      104.242
       6647.1713  5.69363e-14  5.88100e-16      9902.10      102.280
       6652.8810  5.42529e-14  5.73591e-16      9437.07      99.7740
       6658.5907  5.00722e-14  5.53059e-16      8709.67      96.2004
       6664.3004  4.96054e-14  5.50569e-16      8626.49      95.7452
       6670.0101  4.85232e-14  5.44465e-16      8433.55      94.6304
       6675.7198  4.79492e-14  5.41761e-16      8326.43      94.0775
       6681.4295  4.89342e-14  5.47147e-16      8489.94      94.9283
       6687.1392  4.89029e-14  5.48003e-16      8477.46      94.9979
       6692.8488  4.82944e-14  5.44438e-16      8365.94      94.3119
       6698.5585  4.88903e-14  5.47733e-16      8464.04      94.8252
       6704.2682  4.97667e-14  5.52028e-16      8612.01      95.5272
       6709.9779  4.98945e-14  5.53325e-16      8632.89      95.7379
       6715.6876  5.20357e-14  5.65500e-16      9004.25      97.8541
       6721.3973  5.30772e-14  5.70066e-16      9185.54      98.6556
       6727.1070  5.38737e-14  5.74211e-16      9323.80      99.3775
       6732.8167  5.45334e-14  5.77457e-16      9438.48      99.9446
       6738.5263  5.31849e-14  5.69793e-16      9207.40      98.6428
       6744.2360  5.10203e-14  5.57903e-16      8837.28      96.6350
       6749.9457  4.99583e-14  5.52314e-16      8657.47      95.7127
       6755.6554  4.92123e-14  5.47923e-16      8531.91      94.9931
       6761.3651  4.87834e-14  5.45470e-16      8461.06      94.6070
       6767.0748  4.78904e-14  5.40884e-16      8309.19      93.8457
       6772.7845  4.73906e-14  5.37932e-16      8222.91      93.3386
       6778.4942  4.74046e-14  5.37892e-16      8226.18      93.3412
       6784.2039  4.73173e-14  5.37263e-16      8213.38      93.2586
       6789.9135  4.62613e-14  5.31195e-16      8032.00      92.2275
       6795.6232  4.59579e-14  5.30271e-16      7972.92      91.9932
       6801.3329  4.53325e-14  5.27306e-16      7846.60      91.2716
       6807.0426  4.54769e-14  5.29144e-16      7850.02      91.3385
       6812.7523  4.46789e-14  5.25034e-16      7691.75      90.3877
       6818.4620  4.41240e-14  5.23492e-16      7576.77      89.8915
       6824.1717  4.41741e-14  5.26576e-16      7566.27      90.1934
       6829.8814  4.46131e-14  5.31683e-16      7622.09      90.8374
       6835.5910  4.45346e-14  5.31494e-16      7589.27      90.5734
       6841.3007  4.31269e-14  5.21791e-16      7330.82      88.6954
       6847.0104  4.32330e-14  5.20798e-16      7330.88      88.3099
       6852.7201  4.20688e-14  5.15486e-16      7115.67      87.1912
       6858.4298  3.98577e-14  5.05949e-16      6724.69      85.3624
       6864.1395  3.69927e-14  4.90516e-16      6225.73      82.5520
       6869.8492  3.46409e-14  4.74108e-16      5816.27      79.6035
       6875.5589  3.40445e-14  4.68249e-16      5702.83      78.4368
       6881.2685  3.48703e-14  4.74189e-16      5827.85      79.2510
       6886.9782  3.48815e-14  4.75659e-16      5816.75      79.3195
       6892.6879  3.57621e-14  4.82387e-16      5952.26      80.2887
       6898.3976  3.70441e-14  4.91065e-16      6155.08      81.5932
       6904.1073  3.82062e-14  4.98477e-16      6338.13      82.6938
       6909.8170  3.94243e-14  5.06613e-16      6532.73      83.9473
       6915.5267  4.04639e-14  5.13642e-16      6703.72      85.0958
       6921.2364  4.08721e-14  5.16229e-16      6781.03      85.6468
       6926.9461  4.07405e-14  5.14456e-16      6771.76      85.5114
       6932.6557  4.09727e-14  5.14042e-16      6821.87      85.5871
       6938.3654  4.13605e-14  5.15961e-16      6896.79      86.0357
       6944.0751  4.19275e-14  5.20242e-16      7000.42      86.8622
       6949.7848  4.26230e-14  5.23860e-16      7124.97      87.5697
       6955.4945  4.24700e-14  5.21551e-16      7107.27      87.2806
       6961.2042  4.28279e-14  5.22630e-16      7175.04      87.5571
       6966.9139  4.40954e-14  5.30226e-16      7395.26      88.9244
       6972.6236  4.44878e-14  5.33532e-16      7467.09      89.5510
       6978.3332  4.63303e-14  5.43773e-16      7780.59      91.3198
       6984.0429  4.83957e-14  5.53302e-16      8131.18      92.9627
       6989.7526  4.98284e-14  5.59524e-16      8375.54      94.0491
       6995.4623  5.04811e-14  5.62693e-16      8487.44      94.6061
       7001.1720  5.06749e-14  5.64006e-16      8520.00      94.8267
       7006.8817  5.08996e-14  5.65859e-16      8557.45      95.1345
       7012.5914  5.01197e-14  5.62167e-16      8425.73      94.5072
       7018.3011  4.93333e-14  5.57020e-16      8292.14      93.6261
       7024.0108  4.76230e-14  5.47740e-16      8002.90      92.0462
       7029.7204  4.66086e-14  5.42377e-16      7830.49      91.1223
       7035.4301  4.73463e-14  5.45955e-16      7949.70      91.6689
       7041.1398  4.87677e-14  5.54435e-16      8180.41      93.0023
       7046.8495  4.94263e-14  5.58768e-16      8280.92      93.6164
       7052.5592  5.11695e-14  5.68426e-16      8561.07      95.1023
       7058.2689  5.24033e-14  5.75264e-16      8754.17      96.1000
       7063.9786  5.37027e-14  5.82485e-16      8957.07      97.1526
       7069.6883  5.47257e-14  5.88503e-16      9113.16      98.0000
       7075.3979  5.71417e-14  6.00519e-16      9500.24      99.8408
       7081.1076  5.82372e-14  6.06856e-16      9666.86      100.733
       7086.8173  5.90184e-14  6.12478e-16      9780.97      101.504
       7092.5270  6.03754e-14  6.18372e-16      9990.88      102.328
       7098.2367  6.16916e-14  6.25177e-16      10192.5      103.290
       7103.9464  6.23066e-14  6.28475e-16      10274.1      103.633
       7109.6561  6.35597e-14  6.34409e-16      10454.4      104.349
       7115.3658  6.45373e-14  6.40720e-16      10583.3      105.070
       7121.0754  6.36346e-14  6.37850e-16      10398.8      104.234
       7126.7851  6.38172e-14  6.40081e-16      10387.0      104.181
       7132.4948  6.20291e-14  6.32668e-16      10055.4      102.560
       7138.2045  6.19392e-14  6.33711e-16      9998.65      102.298
       7143.9142  6.31281e-14  6.41434e-16      10146.5      103.097
       7149.6239  6.59161e-14  6.56819e-16      10547.9      105.104
       7155.3336  7.01481e-14  6.77854e-16      11174.0      107.976
       7161.0433  7.42643e-14  6.96931e-16      11779.7      110.546
       7166.7530  7.64819e-14  7.09948e-16      12083.3      112.164
       7172.4626  7.99217e-14  7.26480e-16      12578.1      114.333
       7178.1723  7.96678e-14  7.26685e-16      12493.1      113.955
       7183.8820  7.88733e-14  7.23535e-16      12323.6      113.049
       7189.5917  7.85083e-14  7.24114e-16      12219.0      112.701
       7195.3014  8.01982e-14  7.32967e-16      12433.2      113.633
       7201.0111  8.12293e-14  7.38867e-16      12542.8      114.090
       7206.7208  8.55298e-14  7.59382e-16      13153.3      116.783
       7212.4305  9.01644e-14  7.80252e-16      13807.8      119.488
       7218.1401  9.61965e-14  8.05910e-16      14668.8      122.891
       7223.8498  9.85651e-14  8.20038e-16      14972.2      124.565
       7229.5595  1.02929e-13  8.39854e-16      15584.0      127.159
       7235.2692  1.04594e-13  8.51989e-16      15795.5      128.665
       7240.9789  1.03043e-13  8.50034e-16      15532.2      128.130
       7246.6886  1.03707e-13  8.50589e-16      15610.8      128.038
       7252.3983  1.06740e-13  8.60257e-16      16045.3      129.315
       7258.1080  1.08119e-13  8.63661e-16      16231.5      129.658
       7263.8176  1.09975e-13  8.71470e-16      16489.6      130.668
       7269.5273  1.12196e-13  8.83235e-16      16801.9      132.269
       7275.2370  1.15721e-13  9.01054e-16      17316.4      134.834
       7280.9467  1.25988e-13  9.37078e-16      18839.8      140.127
       7286.6564  1.36285e-13  9.71828e-16      20368.0      145.241
       7292.3661  1.46834e-13  1.00651e-15      21936.7      150.370
       7298.0758  1.52965e-13  1.02665e-15      22845.2      153.329
       7303.7855  1.52821e-13  1.02636e-15      22821.9      153.275
       7309.4952  1.49014e-13  1.01541e-15      22259.5      151.681
       7315.2048  1.45885e-13  1.00621e-15      21798.2      150.349
       7320.9145  1.39851e-13  9.84184e-16      20897.5      147.064
       7326.6242  1.33222e-13  9.60604e-16      19901.4      143.501
       7332.3339  1.29309e-13  9.47769e-16      19312.0      141.548
       7338.0436  1.22648e-13  9.26307e-16      18316.8      138.339
       7343.7533  1.19256e-13  9.12943e-16      17811.3      136.351
       7349.4630  1.10575e-13  8.76683e-16      16516.0      130.946
       7355.1727  1.00837e-13  8.39034e-16      15062.1      125.327
       7360.8823  9.13907e-14  8.00513e-16      13652.3      119.584
       7366.5920  7.92164e-14  7.49500e-16      11831.5      111.943
       7372.3017  7.09674e-14  7.10830e-16      10593.5      106.107
       7378.0114  6.45748e-14  6.77644e-16      9631.97      101.077
       7383.7211  6.03189e-14  6.51209e-16      8988.93      97.0454
       7389.4308  5.81707e-14  6.43465e-16      8659.75      95.7913
       7395.1405  5.78544e-14  6.43959e-16      8601.80      95.7438
       7400.8502  5.91720e-14  6.52904e-16      8783.39      96.9159
       7406.5598  6.11839e-14  6.61286e-16      9062.70      97.9512
       7412.2695  6.33028e-14  6.71015e-16      9352.14      99.1333
       7417.9792  6.65161e-14  6.87577e-16      9797.09      101.273
       7423.6889  6.97568e-14  7.06268e-16      10241.8      103.695
       7429.3986  7.25403e-14  7.20906e-16      10615.9      105.501
       7435.1083  7.78587e-14  7.48901e-16      11356.5      109.235
       7440.8180  8.25451e-14  7.70540e-16      12001.5      112.031
       7446.5277  8.66063e-14  7.89356e-16      12553.5      114.417
       7452.2374  8.90271e-14  7.99731e-16      12867.5      115.588
       7457.9470  9.11930e-14  8.09826e-16      13143.8      116.721
       7463.6567  9.07360e-14  8.12128e-16      13038.5      116.701
       7469.3664  8.68905e-14  7.98287e-16      12445.1      114.336
       7475.0761  8.41562e-14  7.88436e-16      12011.1      112.529
       7480.7858  8.17249e-14  7.77961e-16      11621.3      110.626
       7486.4955  8.07446e-14  7.73825e-16      11442.9      109.665
       7492.2052  7.76037e-14  7.59176e-16      10964.8      107.266
       7497.9149  7.60641e-14  7.51768e-16      10718.0      105.930
       7503.6245  7.44966e-14  7.44967e-16      10468.1      104.681
       7509.3342  7.34203e-14  7.41582e-16      10285.2      103.885
       7515.0439  7.38932e-14  7.47825e-16      10314.6      104.388
       7520.7536  7.30530e-14  7.49085e-16      10153.1      104.110
       7526.4633  7.10612e-14  7.42775e-16      9818.40      102.628
       7532.1730  6.76873e-14  7.25182e-16      9281.56      99.4398
       7537.8827  6.38321e-14  7.04805e-16      8689.99      95.9509
       7543.5924  6.26270e-14  6.99486e-16      8465.85      94.5557
       7549.3021  6.23371e-14  7.00100e-16      8367.07      93.9695
       7555.0117  6.10294e-14  6.97896e-16      8132.93      93.0034
       7560.7214  6.05964e-14  6.97701e-16      8018.34      92.3223
       7566.4311  5.94013e-14  6.94829e-16      7805.75      91.3054
       7572.1408  5.89271e-14  6.96348e-16      7690.14      90.8751
       7577.8505  5.82590e-14  6.94418e-16      7551.13      90.0056
       7583.5602  5.58556e-14  6.81882e-16      7191.56      87.7941
       7589.2699  5.05102e-14  6.49295e-16      6461.83      83.0651
       7594.9796  3.78788e-14  5.64668e-16      4816.18      71.7959
       7600.6892  2.62072e-14  4.72204e-16      3312.22      59.6798
       7606.3989  2.23627e-14  4.38261e-16      2809.26      55.0554
       7612.1086  2.85689e-14  4.96424e-16      3567.02      61.9818
       7617.8183  3.54663e-14  5.53987e-16      4401.46      68.7512
       7623.5280  3.73485e-14  5.70998e-16      4608.35      70.4543
       7629.2377  3.56146e-14  5.59963e-16      4371.37      68.7303
       7634.9474  3.70031e-14  5.70330e-16      4521.66      69.6925
       7640.6571  4.14708e-14  6.02249e-16      5051.89      73.3648
       7646.3667  4.77190e-14  6.44504e-16      5808.66      78.4531
       7652.0764  5.28269e-14  6.77947e-16      6442.13      82.6743
       7657.7861  5.63733e-14  6.99783e-16      6886.93      85.4900
       7663.4958  5.95614e-14  7.17310e-16      7289.45      87.7883
       7669.2055  6.12419e-14  7.26062e-16      7508.58      89.0190
       7674.9152  6.28317e-14  7.34387e-16      7717.36      90.2017
       7680.6249  6.38174e-14  7.40195e-16      7850.27      91.0523
       7686.3346  6.80163e-14  7.63020e-16      8375.33      93.9560
       7692.0443  7.49160e-14  7.99667e-16      9230.00      98.5227
       7697.7539  8.15451e-14  8.35208e-16      10051.6      102.952
       7703.4636  9.19787e-14  8.86622e-16      11342.4      109.334
       7709.1733  1.03768e-13  9.43737e-16      12799.9      116.411
       7714.8830  1.14397e-13  9.92935e-16      14114.4      122.509
       7720.5927  1.20147e-13  1.01350e-15      14823.9      125.047
       7726.3024  1.21754e-13  1.01510e-15      15014.8      125.182
       7732.0121  1.20987e-13  1.00951e-15      14907.1      124.383
       7737.7218  1.20838e-13  1.00894e-15      14872.0      124.174
       7743.4314  1.31767e-13  1.05518e-15      16196.5      129.700
       7749.1411  1.61459e-13  1.16899e-15      19816.7      143.477
       7754.8508  2.03792e-13  1.31099e-15      24966.0      160.606
       7760.5605  2.45007e-13  1.43280e-15      29947.9      175.135
       7766.2702  2.82378e-13  1.53618e-15      34428.9      187.299
       7771.9799  3.19324e-13  1.63409e-15      38827.7      198.694
       7777.6896  3.52195e-13  1.71860e-15      42701.3      208.368
       7783.3993  3.65670e-13  1.75412e-15      44199.7      212.026
       7789.1089  3.45068e-13  1.70802e-15      41577.3      205.799
       7794.8186  2.81971e-13  1.54687e-15      33866.4      185.789
       7800.5283  2.09309e-13  1.33768e-15      25065.4      160.192
       7806.2380  1.63965e-13  1.18980e-15      19583.2      142.104
       7811.9477  1.40055e-13  1.10503e-15      16687.1      131.661
       7817.6574  1.23515e-13  1.04426e-15      14678.5      124.100
       7823.3671  1.09592e-13  9.88050e-16      12988.5      117.100
       7829.0768  9.81884e-14  9.34621e-16      11603.3      110.448
       7834.7865  8.92977e-14  8.93742e-16      10518.8      105.278
       7840.4961  8.55681e-14  8.79240e-16      10045.3      103.219
       7846.2058  8.73186e-14  8.93454e-16      10216.4      104.536
       7851.9155  8.96351e-14  9.11845e-16      10451.1      106.317
       7857.6252  9.05047e-14  9.18086e-16      10512.6      106.640
       7863.3349  9.27599e-14  9.27935e-16      10730.8      107.347
       7869.0446  9.70404e-14  9.47311e-16      11179.7      109.137
       7874.7543  1.01431e-13  9.67956e-16      11639.1      111.072
       7880.4640  1.03412e-13  9.78225e-16      11820.7      111.818
       7886.1736  1.01618e-13  9.71868e-16      11570.8      110.662
       7891.8833  9.93493e-14  9.62235e-16      11268.4      109.139
       7897.5930  9.71426e-14  9.50376e-16      10975.1      107.372
       7903.3027  9.53231e-14  9.44732e-16      10725.6      106.300
       7909.0124  9.42970e-14  9.50642e-16      10564.2      106.502
       7914.7221  9.09666e-14  9.42964e-16      10145.6      105.170
       7920.4318  8.84351e-14  9.28887e-16      9819.26      103.138
       7926.1415  8.67428e-14  9.15749e-16      9590.11      101.243
       7931.8511  8.57475e-14  9.09809e-16      9441.12      100.173
       7937.5608  8.62235e-14  9.11865e-16      9456.35      100.007
       7943.2705  8.73025e-14  9.18179e-16      9538.83      100.322
       7948.9802  9.03012e-14  9.36411e-16      9831.52      101.952
       7954.6899  9.22253e-14  9.49094e-16      10004.7      102.959
       7960.3996  9.16676e-14  9.52271e-16      9905.96      102.906
       7966.1093  9.16349e-14  9.56139e-16      9862.97      102.912
       7971.8190  9.29085e-14  9.61175e-16      9962.09      103.062
       7977.5287  9.26813e-14  9.60714e-16      9904.98      102.673
       7983.2383  9.04907e-14  9.52022e-16      9643.12      101.452
       7988.9480  8.85360e-14  9.47740e-16      9409.59      100.726
       7994.6577  8.51241e-14  9.32057e-16      9024.70      98.8149
       8000.3674  8.12342e-14  9.06538e-16      8591.12      95.8732
       8006.0771  7.84184e-14  8.88790e-16      8273.61      93.7728
       8011.7868  7.65066e-14  8.80726e-16      8053.45      92.7095
       8017.4965  7.52758e-14  8.78389e-16      7906.24      92.2574
       8023.2062  7.48500e-14  8.79573e-16      7844.92      92.1868
       8028.9158  7.30099e-14  8.68610e-16      7636.77      90.8558
       8034.6255  7.09716e-14  8.52405e-16      7408.11      88.9751
       8040.3352  7.10354e-14  8.49669e-16      7397.84      88.4871
       8046.0449  7.22609e-14  8.59015e-16      7506.95      89.2404
       8051.7546  7.60371e-14  8.82604e-16      7879.16      91.4577
       8057.4643  7.71808e-14  8.91854e-16      7975.61      92.1613
       8063.1740  7.75021e-14  8.96114e-16      7983.94      92.3138
       8068.8837  7.77328e-14  8.96298e-16      7978.98      92.0016
       8074.5934  8.13860e-14  9.15011e-16      8322.68      93.5706
       8080.3030  8.68652e-14  9.45849e-16      8850.16      96.3667
       8086.0127  9.38628e-14  9.83797e-16      9527.18      99.8565
       8091.7224  1.00124e-13  1.01789e-15      10120.1      102.884
       8097.4321  1.02327e-13  1.03222e-15      10290.9      103.809
       8103.1418  1.01069e-13  1.02847e-15      10107.6      102.854
       8108.8515  9.94462e-14  1.02195e-15      9890.10      101.635
       8114.5612  9.89730e-14  1.02254e-15      9787.95      101.124
       8120.2709  9.91486e-14  1.02656e-15      9752.65      100.976
       8125.9805  9.97674e-14  1.02961e-15      9760.40      100.729
       8131.6902  9.61425e-14  1.01478e-15      9355.33      98.7455
       8137.3999  8.99312e-14  9.87762e-16      8703.22      95.5921
       8143.1096  8.73621e-14  9.76169e-16      8408.94      93.9600
       8148.8193  9.04133e-14  9.95394e-16      8656.39      95.3015
       8154.5290  9.92789e-14  1.04340e-15      9456.23      99.3828
       8160.2387  1.15012e-13  1.12270e-15      10900.3      106.404
       8165.9484  1.28605e-13  1.18952e-15      12128.6      112.183
       8171.6580  1.38026e-13  1.23450e-15      12940.9      115.744
       8177.3677  1.47904e-13  1.28046e-15      13785.2      119.343
       8183.0774  1.63269e-13  1.34778e-15      15130.3      124.900
       8188.7871  1.85075e-13  1.43531e-15      17057.5      132.286
       8194.4968  2.09983e-13  1.53020e-15      19252.5      140.298
       8200.2065  2.37891e-13  1.63107e-15      21711.1      148.859
       8205.9162  2.51641e-13  1.68131e-15      22874.8      152.835
       8211.6259  2.52979e-13  1.68879e-15      22922.8      153.024
       8217.3356  2.49249e-13  1.67749e-15      22536.0      151.671
       8223.0452  2.37830e-13  1.64052e-15      21469.8      148.096
       8228.7549  2.28031e-13  1.60946e-15      20549.0      145.037
       8234.4646  2.24146e-13  1.59757e-15      20160.9      143.693
       8240.1743  2.16195e-13  1.57104e-15      19408.5      141.037
       8245.8840  1.93701e-13  1.48976e-15      17358.7      133.506
       8251.5937  1.67625e-13  1.38916e-15      14991.0      124.235
       8257.3034  1.44781e-13  1.29480e-15      12922.9      115.571
       8263.0131  1.31884e-13  1.24162e-15      11748.6      110.607
       8268.7227  1.25914e-13  1.21668e-15      11193.2      108.158
       8274.4324  1.22534e-13  1.20670e-15      10869.3      107.040
       8280.1421  1.18828e-13  1.19778e-15      10516.2      106.002
       8285.8518  1.13353e-13  1.17539e-15      10005.9      103.754
       8291.5615  1.08831e-13  1.15455e-15      9592.13      101.759
       8297.2712  1.06998e-13  1.14515e-15      9418.00      100.796
       8302.9809  1.07309e-13  1.14287e-15      9432.62      100.461
       8308.6906  1.06997e-13  1.13751e-15      9394.77      99.8779
       8314.4002  1.06729e-13  1.13386e-15      9363.72      99.4778
       8320.1099  1.03227e-13  1.11340e-15      9047.33      97.5839
       8325.8196  1.00922e-13  1.10082e-15      8837.23      96.3928
       8331.5293  9.85688e-14  1.09218e-15      8624.98      95.5676
       8337.2390  9.92490e-14  1.10760e-15      8677.81      96.8427
       8342.9487  1.03720e-13  1.14501e-15      9062.01      100.039
       8348.6584  1.06021e-13  1.15630e-15      9257.36      100.963
       8354.3681  1.05177e-13  1.14223e-15      9178.44      99.6783
       8360.0778  1.01527e-13  1.11485e-15      8854.62      97.2313
       8365.7874  9.62423e-14  1.08359e-15      8389.41      94.4564
       8371.4971  9.67795e-14  1.08353e-15      8435.31      94.4402
       8377.2068  1.04261e-13  1.12480e-15      9088.14      98.0461
       8382.9165  1.19833e-13  1.20425e-15      10446.1      104.977
       8388.6262  1.39969e-13  1.29879e-15      12204.0      113.243
       8394.3359  1.66317e-13  1.41677e-15      14500.1      123.520
       8400.0456  2.05500e-13  1.57122e-15      17903.8      136.889
       8405.7553  2.74739e-13  1.80013e-15      23923.9      156.753
       8411.4649  4.37637e-13  2.25211e-15      38088.9      196.008
       8417.1746  7.76152e-13  2.98511e-15      67516.2      259.670
       8422.8843  1.26686e-12  3.81751e-15      110132.      331.868
       8428.5940  1.68201e-12  4.41441e-15      146122.      383.496
       8434.3037  1.92231e-12  4.72114e-15      166900.      409.901
       8440.0134  2.02975e-12  4.84786e-15      176153.      420.723
       8445.7231  2.06991e-12  4.89594e-15      179572.      424.739
       8451.4328  2.08464e-12  4.91511e-15      180781.      426.241
       8457.1424  2.10516e-12  4.94140e-15      182505.      428.391
       8462.8521  2.00309e-12  4.82350e-15      173570.      417.961
       8468.5618  1.56277e-12  4.25302e-15      135353.      368.357
       8474.2715  9.90108e-13  3.37252e-15      85719.6      291.979
       8479.9812  6.00162e-13  2.63328e-15      51915.9      227.787
       8485.6909  4.13823e-13  2.19923e-15      35751.8      190.000
       8491.4006  3.25035e-13  1.95993e-15      28037.6      169.064
       8497.1103  2.86206e-13  1.84649e-15      24645.4      159.003
       8502.8200  2.63193e-13  1.77657e-15      22623.7      152.712
       8508.5296  2.40016e-13  1.69824e-15      20595.3      145.722
       8514.2393  2.18265e-13  1.61893e-15      18701.2      138.713
       8519.9490  2.04356e-13  1.56526e-15      17493.6      133.991
       8525.6587  2.01516e-13  1.55455e-15      17233.3      132.943
       8531.3684  2.10166e-13  1.58882e-15      17956.1      135.745
       8537.0781  2.36992e-13  1.68728e-15      20227.9      144.014
       8542.7878  2.58518e-13  1.76200e-15      22049.4      150.284
       8548.4975  2.57585e-13  1.76110e-15      21956.0      150.112
       8554.2071  2.42558e-13  1.70821e-15      20659.3      145.493
       8559.9168  2.20954e-13  1.63139e-15      18808.1      138.868
       8565.6265  2.02754e-13  1.56352e-15      17246.3      132.993
       8571.3362  2.00901e-13  1.55783e-15      17076.3      132.413
       8577.0459  2.11071e-13  1.59685e-15      17927.3      135.628
       8582.7556  2.23998e-13  1.64593e-15      19005.0      139.648
       8588.4653  2.38411e-13  1.69702e-15      20193.5      143.739
       8594.1750  2.51969e-13  1.74655e-15      21289.3      147.570
       8599.8847  2.73704e-13  1.82194e-15      23064.6      153.532
       8605.5943  2.92913e-13  1.88510e-15      24628.6      158.502
       8611.3040  3.01876e-13  1.91586e-15      25331.2      160.764
       8617.0137  3.02611e-13  1.92021e-15      25345.8      160.831
       8622.7234  3.00494e-13  1.91621e-15      25117.8      160.173
       8628.4331  3.07894e-13  1.94284e-15      25684.5      162.071
       8634.1428  3.18791e-13  1.97722e-15      26528.9      164.538
       8639.8525  3.29974e-13  2.01323e-15      27394.4      167.139
       8645.5622  3.37937e-13  2.03809e-15      27996.9      168.849
       8651.2718  3.50586e-13  2.07849e-15      28985.4      171.843
       8656.9815  3.74528e-13  2.14914e-15      30901.1      177.319
       8662.6912  3.92632e-13  2.20188e-15      32326.6      181.288
       8668.4009  4.04973e-13  2.23800e-15      33272.7      183.875
       8674.1106  4.07666e-13  2.24662e-15      33420.1      184.176
       8679.8203  3.79479e-13  2.17033e-15      31042.1      177.536
       8685.5300  3.49792e-13  2.08623e-15      28557.5      170.322
       8691.2397  3.24461e-13  2.01178e-15      26437.1      163.919
       8696.9493  3.14751e-13  1.98583e-15      25595.3      161.486
       8702.6590  3.03570e-13  1.95378e-15      24651.5      158.657
       8708.3687  2.81989e-13  1.88268e-15      22883.9      152.783
       8714.0784  2.54802e-13  1.79161e-15      20668.7      145.330
       8719.7881  2.27961e-13  1.69488e-15      18496.2      137.518
       8725.4978  2.11967e-13  1.63660e-15      17201.3      132.812
       8731.2075  1.97127e-13  1.57849e-15      15991.6      128.052
       8736.9172  1.87102e-13  1.54090e-15      15173.3      124.962
       8742.6269  1.78037e-13  1.50466e-15      14432.9      121.978
       8748.3365  1.67705e-13  1.46504e-15      13583.1      118.659
       8754.0462  1.54754e-13  1.41424e-15      12528.1      114.490
       8759.7559  1.39960e-13  1.35916e-15      11324.7      109.975
       8765.4656  1.24905e-13  1.29443e-15      10101.0      104.680
       8771.1753  1.10736e-13  1.22203e-15      8945.93      98.7229
       8776.8850  9.83973e-14  1.15615e-15      7941.93      93.3162
       8782.5947  9.50425e-14  1.12976e-15      7665.03      91.1130
       8788.3044  9.40188e-14  1.11939e-15      7576.69      90.2081
       8794.0140  9.37233e-14  1.11511e-15      7548.90      89.8163
       8799.7237  9.59263e-14  1.12197e-15      7721.93      90.3172
       8805.4334  9.44922e-14  1.11279e-15      7601.14      89.5152
       8811.1431  9.39425e-14  1.11195e-15      7548.98      89.3536
       8816.8528  9.95420e-14  1.15050e-15      7990.29      92.3510
       8822.5625  1.09504e-13  1.22508e-15      8777.88      98.2028
       8828.2722  1.21963e-13  1.29915e-15      9762.96      103.995
       8833.9819  1.33396e-13  1.34386e-15      10665.0      107.442
       8839.6915  1.41865e-13  1.37199e-15      11328.3      109.558
       8845.4012  1.42453e-13  1.36750e-15      11355.3      109.007
       8851.1109  1.38034e-13  1.34438e-15      10989.4      107.032
       8856.8206  1.43870e-13  1.37171e-15      11439.2      109.065
       8862.5303  1.47735e-13  1.39397e-15      11735.0      110.727
       8868.2400  1.54028e-13  1.42504e-15      12224.5      113.100
       8873.9497  1.52168e-13  1.41711e-15      12065.6      112.364
       8879.6594  1.40112e-13  1.36885e-15      11100.7      108.450
       8885.3691  1.24038e-13  1.30047e-15      9818.43      102.941
       8891.0787  1.08884e-13  1.21574e-15      8612.54      96.1636
       8896.7884  1.04248e-13  1.18558e-15      8234.76      93.6514
       8902.4981  1.12986e-13  1.23619e-15      8909.84      97.4834
       8908.2078  1.19181e-13  1.27046e-15      9379.17      99.9812
       8913.9175  1.25366e-13  1.30959e-15      9838.00      102.770
       8919.6272  1.22717e-13  1.30640e-15      9590.44      102.096
       8925.3369  1.14085e-13  1.25441e-15      8868.03      97.5075
       8931.0466  1.03977e-13  1.19072e-15      8037.24      92.0406
       8936.7562  9.79570e-14  1.15949e-15      7529.42      89.1233
       8942.4659  9.68404e-14  1.16506e-15      7403.67      89.0715
       8948.1756  9.30102e-14  1.14630e-15      7072.39      87.1631
       8953.8853  8.45627e-14  1.10711e-15      6395.33      83.7291
       8959.5950  7.80463e-14  1.07210e-15      5871.34      80.6526
       8965.3047  7.28736e-14  1.02750e-15      5457.29      76.9461
       8971.0144  7.00525e-14  1.00042e-15      5221.77      74.5722
       8976.7241  7.83293e-14  1.05475e-15      5812.39      78.2671
       8982.4337  9.40577e-14  1.15781e-15      6947.95      85.5264
       8988.1434  1.21044e-13  1.31410e-15      8905.14      96.6776
       8993.8531  1.51836e-13  1.47159e-15      11127.1      107.843
       8999.5628  1.68278e-13  1.55259e-15      12286.6      113.360
       9005.2725  1.74592e-13  1.57936e-15      12702.2      114.904
       9010.9822  1.78419e-13  1.59063e-15      12940.3      115.365
       9016.6919  1.80638e-13  1.59951e-15      13064.4      115.682
       9022.4016  1.96097e-13  1.66464e-15      14144.7      120.073
       9028.1113  2.22090e-13  1.77723e-15      15980.8      127.883
       9033.8209  2.45321e-13  1.86926e-15      17627.6      134.316
       9039.5306  2.43178e-13  1.86334e-15      17476.0      133.909
       9045.2403  2.28873e-13  1.80791e-15      16476.3      130.150
       9050.9500  2.17411e-13  1.76051e-15      15686.3      127.022
       9056.6597  2.13022e-13  1.73604e-15      15402.6      125.525
       9062.3694  2.21027e-13  1.76510e-15      16017.4      127.913
       9068.0791  2.40328e-13  1.83818e-15      17447.1      133.447
       9073.7888  2.51745e-13  1.87662e-15      18305.8      136.460
       9079.4984  2.47566e-13  1.85784e-15      18028.5      135.294
       9085.2081  2.28252e-13  1.78603e-15      16641.4      130.216
       9090.9178  2.13068e-13  1.72777e-15      15552.2      126.113
       9096.6275  1.96250e-13  1.65885e-15      14341.3      121.224
       9102.3372  1.92513e-13  1.64348e-15      14084.7      120.241
       9108.0469  2.01924e-13  1.67972e-15      14784.2      122.983
       9113.7566  2.01271e-13  1.67659e-15      14742.4      122.805
       9119.4663  1.85949e-13  1.61298e-15      13617.6      118.123
       9125.1760  1.70000e-13  1.54318e-15      12439.9      112.924
       9130.8856  1.50284e-13  1.45029e-15      10987.4      106.032
       9136.5953  1.09072e-13  1.24563e-15      7970.56      91.0264
       9142.3050  1.06071e-13  1.23328e-15      7749.71      90.1053
       9148.0147  1.11054e-13  1.26050e-15      8112.67      92.0815
       9153.7244  1.16034e-13  1.28694e-15      8475.05      93.9970
       9159.4341  1.57255e-13  1.48726e-15      11483.6      108.608
       9165.1438  1.69176e-13  1.54140e-15      12353.1      112.551
       9170.8535  1.66096e-13  1.52440e-15      12127.5      111.303
       9176.5631  1.68221e-13  1.53107e-15      12283.0      111.794
       9182.2728  1.85479e-13  1.60954e-15      13544.0      117.532
       9187.9825  2.16481e-13  1.73659e-15      15816.3      126.877
       9193.6922  2.51735e-13  1.87033e-15      18386.3      136.606
       9199.4019  2.84235e-13  1.98990e-15      20731.9      145.142
       9205.1116  3.03610e-13  2.05710e-15      22104.6      149.769
       9210.8213  2.93547e-13  2.02468e-15      21337.8      147.173
       9216.5310  2.73672e-13  1.95772e-15      19855.4      142.036
       9222.2406  2.75414e-13  1.96599e-15      19930.9      142.273
       9227.9503  2.84416e-13  2.00034e-15      20526.2      144.364
       9233.6600  3.00309e-13  2.05570e-15      21608.3      147.915
       9239.3697  3.02322e-13  2.06860e-15      21675.9      148.315
       9245.0794  2.81944e-13  2.00456e-15      20113.4      143.001
       9250.7891  2.45659e-13  1.87849e-15      17394.4      133.011
       9256.4988  2.08485e-13  1.74073e-15      14613.6      122.016
       9262.2085  1.84319e-13  1.64870e-15      12766.4      114.193
       9267.9182  1.76103e-13  1.62318e-15      12034.6      110.925
       9273.6278  1.71323e-13  1.61498e-15      11535.2      108.737
       9279.3375  1.68259e-13  1.61479e-15      11148.4      106.992
       9285.0472  1.51196e-13  1.54708e-15      9853.67      100.825
       9290.7569  1.30506e-13  1.45198e-15      8364.10      93.0573
       9296.4666  1.05520e-13  1.32141e-15      6647.86      83.2503
       9302.1763  9.40045e-14  1.27415e-15      5819.17      78.8740
       9307.8860  9.19339e-14  1.28909e-15      5589.81      78.3797
       9313.5957  8.99298e-14  1.29324e-15      5376.94      77.3236
       9319.3053  8.93423e-14  1.29522e-15      5259.29      76.2451
       9325.0150  8.69473e-14  1.28182e-15      5042.70      74.3420
       9330.7247  8.09879e-14  1.23402e-15      4627.99      70.5173
       9336.4344  7.80397e-14  1.22045e-15      4394.16      68.7196
       9342.1441  7.78855e-14  1.22107e-15      4323.37      67.7807
       9347.8538  9.97938e-14  1.38041e-15      5464.98      75.5953
       9353.5635  1.34970e-13  1.60392e-15      7297.71      86.7226
       9359.2732  1.79245e-13  1.85736e-15      9585.58      99.3269
       9364.9828  2.13925e-13  2.04124e-15      11351.4      108.313
       9370.6925  2.21453e-13  2.09897e-15      11706.3      110.955
       9376.4022  2.24594e-13  2.12112e-15      11872.6      112.128
       9382.1119  2.29740e-13  2.12265e-15      12180.9      112.543
       9387.8216  2.63256e-13  2.25078e-15      14030.0      119.954
       9393.5313  3.04380e-13  2.40323e-15      16333.2      128.958
       9399.2410  3.12243e-13  2.42860e-15      16896.2      131.418
       9404.9507  3.00365e-13  2.37223e-15      16391.6      129.458
       9410.6604  2.50791e-13  2.15957e-15      13808.9      118.909
       9416.3700  2.08507e-13  1.96540e-15      11586.6      109.216
       9422.0797  1.56755e-13  1.69443e-15      8864.13      95.8160
       9427.7894  1.21681e-13  1.46016e-15      7210.41      86.5240
       9433.4991  9.83690e-14  1.26503e-15      6437.95      82.7926
       9439.2088  7.90426e-14  1.09419e-15      5671.79      78.5150
       9444.9185  6.62244e-14  9.55599e-16      5177.93      74.7160
       9450.6282  5.54942e-14  8.34174e-16      4702.85      70.6920
       9456.3379  4.36408e-14  7.19234e-16      3990.16      65.7609
       9462.0475  3.98920e-14  6.61983e-16      3919.48      65.0414
       9467.7572  6.75130e-14  1.09760e-15      4091.50      66.5182
       9473.4669  7.06282e-14  1.13024e-15      4323.87      69.1932
       9479.1766  5.72016e-14  9.31680e-16      4148.79      67.5740
       9484.8863  3.44686e-14  5.73159e-16      3893.99      64.7511
       9490.5960  1.87334e-14  3.21100e-16      3629.59      62.2129
       9496.3057  1.73863e-14  3.09218e-16      3404.36      60.5472
       9502.0154  2.07914e-14  3.36665e-16      4114.83      66.6294
       9507.7251  2.44056e-14  3.60533e-16      4882.55      72.1278
       9513.4347  2.69787e-14  3.77579e-16      5456.59      76.3674
       9519.1444  7.87237e-16  3.25289e-17      160.991      6.65218
