# N Sco 2012
# 2012-06-25T01:28:12.300
# 
#     Wavelength       Flux    Uncertainty       Counts  Uncertainty
# 
       3649.7977  2.04393e-14  9.28710e-16      552.739      25.1150
       3651.2747  1.98290e-14  9.12771e-16      537.234      24.7300
       3652.7516  2.07563e-14  9.36205e-16      563.407      25.4122
       3654.2286  2.15794e-14  9.54407e-16      586.840      25.9546
       3655.7056  2.23887e-14  9.64483e-16      609.987      26.2776
       3657.1826  2.20232e-14  9.50208e-16      601.148      25.9370
       3658.6596  3.09810e-14  1.31195e-15      627.226      26.5611
       3660.1365  3.73710e-14  1.57008e-15      636.788      26.7536
       3661.6135  3.33762e-14  1.48025e-15      569.780      25.2701
       3663.0905  3.36510e-14  1.47600e-15      575.545      25.2446
       3664.5675  2.50207e-14  1.17848e-15      507.090      23.8841
       3666.0445  2.52803e-14  1.19903e-15      500.745      23.7501
       3667.5214  2.17813e-14  1.15085e-15      421.402      22.2654
       3668.9984  2.10390e-14  1.14081e-15      397.307      21.5434
       3670.4754  2.02683e-14  1.15926e-15      373.338      21.3533
       3671.9524  2.11720e-14  1.17484e-15      380.114      21.0927
       3673.4294  2.56764e-14  1.32475e-15      448.966      23.1639
       3674.9063  3.23405e-14  1.45416e-15      561.461      25.2456
       3676.3833  3.67288e-14  1.51643e-15      638.840      26.3759
       3677.8603  3.85212e-14  1.56978e-15      671.271      27.3550
       3679.3373  3.79257e-14  1.57282e-15      662.257      27.4645
       3680.8143  4.21894e-14  1.62221e-15      738.308      28.3884
       3682.2912  4.56746e-14  1.67773e-15      801.130      29.4274
       3683.7682  4.56687e-14  1.68212e-15      803.057      29.5790
       3685.2452  4.79291e-14  1.70351e-15      845.219      30.0410
       3686.7222  4.54782e-14  1.66351e-15      804.480      29.4263
       3688.1992  4.47801e-14  1.65801e-15      794.680      29.4236
       3689.6761  4.36409e-14  1.62898e-15      776.976      29.0022
       3691.1531  4.18166e-14  1.59002e-15      746.930      28.4010
       3692.6301  4.06444e-14  1.57160e-15      728.549      28.1709
       3694.1071  3.70940e-14  1.51066e-15      667.249      27.1738
       3695.5841  3.77522e-14  1.51211e-15      681.564      27.2991
       3697.0610  3.83611e-14  1.51909e-15      695.139      27.5274
       3698.5380  3.69258e-14  1.49509e-15      672.000      27.2087
       3700.0150  3.56977e-14  1.46163e-15      652.468      26.7151
       3701.4920  3.69547e-14  1.48525e-15      678.449      27.2675
       3702.9690  3.69533e-14  1.49780e-15      681.477      27.6217
       3704.4459  3.87741e-14  1.52260e-15      718.336      28.2080
       3705.9229  3.97140e-14  1.52810e-15      738.926      28.4321
       3707.3999  4.07410e-14  1.54928e-15      761.416      28.9549
       3708.8769  3.94890e-14  1.52903e-15      741.337      28.7049
       3710.3539  4.05831e-14  1.53441e-15      765.501      28.9428
       3711.8308  4.20582e-14  1.55605e-15      797.281      29.4975
       3713.3078  4.29791e-14  1.56858e-15      818.852      29.8851
       3714.7848  4.33134e-14  1.56450e-15      829.281      29.9539
       3716.2618  4.27751e-14  1.55289e-15      822.868      29.8731
       3717.7388  4.15005e-14  1.53614e-15      802.212      29.6939
       3719.2158  3.93065e-14  1.48696e-15      763.758      28.8929
       3720.6927  3.69627e-14  1.43042e-15      722.343      27.9539
       3722.1697  3.37674e-14  1.37148e-15      664.001      26.9688
       3723.6467  3.36468e-14  1.36818e-15      665.771      27.0723
       3725.1237  3.39503e-14  1.37168e-15      676.016      27.3127
       3726.6007  3.28455e-14  1.34430e-15      658.062      26.9332
       3728.0776  3.39460e-14  1.36184e-15      684.245      27.4505
       3729.5546  3.46597e-14  1.37670e-15      702.550      27.9057
       3731.0316  3.45744e-14  1.37182e-15      704.787      27.9640
       3732.5086  3.70693e-14  1.40793e-15      759.940      28.8633
       3733.9856  3.79325e-14  1.41762e-15      782.160      29.2310
       3735.4625  3.76709e-14  1.40635e-15      781.289      29.1674
       3736.9395  3.94251e-14  1.42801e-15      822.580      29.7944
       3738.4165  3.80914e-14  1.40498e-15      799.558      29.4914
       3739.8935  3.59585e-14  1.36152e-15      759.464      28.7561
       3741.3705  3.37359e-14  1.32115e-15      716.733      28.0684
       3742.8474  2.74655e-14  1.20091e-15      586.816      25.6581
       3744.3244  2.30440e-14  1.10113e-15      495.072      23.6564
       3745.8014  2.08170e-14  1.06270e-15      449.700      22.9569
       3747.2784  2.30142e-14  1.09807e-15      499.911      23.8520
       3748.7554  2.77565e-14  1.18148e-15      606.167      25.8020
       3750.2323  3.23860e-14  1.26742e-15      710.812      27.8174
       3751.7093  3.75503e-14  1.35783e-15      827.762      29.9321
       3753.1863  4.36774e-14  1.47020e-15      966.562      32.5350
       3754.6633  4.71430e-14  1.50937e-15      1047.04      33.5230
       3756.1403  4.98581e-14  1.53955e-15      1111.55      34.3231
       3757.6172  5.08187e-14  1.54924e-15      1137.68      34.6828
       3759.0942  5.62903e-14  1.62167e-15      1265.91      36.4696
       3760.5712  5.64436e-14  1.62859e-15      1275.47      36.8016
       3762.0482  5.76975e-14  1.63710e-15      1310.23      37.1761
       3763.5252  5.73056e-14  1.62209e-15      1307.70      37.0157
       3765.0021  5.82061e-14  1.63131e-15      1334.68      37.4064
       3766.4791  5.83149e-14  1.63917e-15      1343.65      37.7685
       3767.9561  5.79388e-14  1.62801e-15      1341.44      37.6926
       3769.4331  6.16190e-14  1.66385e-15      1433.42      38.7055
       3770.9101  6.08773e-14  1.65165e-15      1422.83      38.6024
       3772.3870  5.93799e-14  1.63495e-15      1394.57      38.3977
       3773.8640  5.70908e-14  1.59399e-15      1347.71      37.6285
       3775.3410  5.71960e-14  1.59170e-15      1357.23      37.7703
       3776.8180  5.55782e-14  1.56908e-15      1325.60      37.4242
       3778.2950  5.10578e-14  1.51745e-15      1223.86      36.3734
       3779.7719  4.77811e-14  1.46110e-15      1150.90      35.1933
       3781.2489  4.36669e-14  1.39244e-15      1056.86      33.7010
       3782.7259  4.22250e-14  1.35710e-15      1026.90      33.0043
       3784.2029  3.97254e-14  1.32293e-15      970.755      32.3279
       3785.6799  3.73836e-14  1.28646e-15      917.935      31.5884
       3787.1568  3.93666e-14  1.31369e-15      971.125      32.4070
       3788.6338  4.29164e-14  1.35599e-15      1063.51      33.6027
       3790.1108  4.61835e-14  1.40740e-15      1149.62      35.0335
       3791.5878  4.25746e-14  1.35146e-15      1064.49      33.7904
       3793.0648  4.27642e-14  1.34413e-15      1073.93      33.7551
       3794.5418  4.07359e-14  1.32264e-15      1027.49      33.3613
       3796.0187  3.82101e-14  1.28755e-15      968.002      32.6185
       3797.4957  3.66195e-14  1.24845e-15      931.714      31.7645
       3798.9727  3.64851e-14  1.23816e-15      932.265      31.6374
       3800.4497  3.37034e-14  1.18444e-15      864.807      30.3919
       3801.9267  3.25008e-14  1.18427e-15      837.262      30.5083
       3803.4036  3.26205e-14  1.17383e-15      843.484      30.3524
       3804.8806  3.25600e-14  1.16299e-15      844.762      30.1737
       3806.3576  3.43544e-14  1.18949e-15      894.233      30.9620
       3807.8346  3.35487e-14  1.18845e-15      876.123      31.0365
       3809.3116  3.35567e-14  1.18767e-15      879.334      31.1222
       3810.7885  3.78242e-14  1.23957e-15      994.709      32.5985
       3812.2655  3.73294e-14  1.22848e-15      985.445      32.4301
       3813.7425  3.57476e-14  1.20746e-15      947.582      32.0067
       3815.2195  3.57345e-14  1.20443e-15      951.331      32.0647
       3816.6965  3.57833e-14  1.19756e-15      956.712      32.0183
       3818.1734  3.38424e-14  1.17380e-15      908.633      31.5154
       3819.6504  3.33180e-14  1.16368e-15      898.176      31.3701
       3821.1274  3.25134e-14  1.14758e-15      879.871      31.0556
       3822.6044  3.10889e-14  1.11956e-15      844.452      30.4101
       3824.0814  3.27901e-14  1.14377e-15      893.947      31.1822
       3825.5583  3.34511e-14  1.14747e-15      915.400      31.4009
       3827.0353  3.69699e-14  1.19517e-15      1015.58      32.8317
       3828.5123  4.02039e-14  1.24928e-15      1108.65      34.4497
       3829.9893  4.27469e-14  1.29382e-15      1183.12      35.8095
       3831.4663  4.46437e-14  1.30717e-15      1240.15      36.3118
       3832.9432  4.87045e-14  1.35677e-15      1357.93      37.8283
       3834.4202  5.14969e-14  1.38956e-15      1441.04      38.8840
       3835.8972  5.32154e-14  1.40784e-15      1494.88      39.5477
       3837.3742  5.42289e-14  1.41730e-15      1529.64      39.9778
       3838.8512  5.51753e-14  1.42785e-15      1563.17      40.4523
       3840.3281  5.58394e-14  1.43064e-15      1588.65      40.7023
       3841.8051  5.53723e-14  1.42102e-15      1581.70      40.5911
       3843.2821  5.40577e-14  1.40412e-15      1549.92      40.2582
       3844.7591  5.04145e-14  1.35890e-15      1450.39      39.0946
       3846.2361  4.57117e-14  1.30212e-15      1319.31      37.5811
       3847.7130  4.36075e-14  1.26912e-15      1262.57      36.7450
       3849.1900  4.34880e-14  1.26875e-15      1263.28      36.8557
       3850.6670  4.31694e-14  1.25328e-15      1258.17      36.5266
       3852.1440  4.01616e-14  1.21183e-15      1174.16      35.4290
       3853.6210  3.89924e-14  1.18464e-15      1143.41      34.7383
       3855.0979  3.84178e-14  1.17864e-15      1129.79      34.6613
       3856.5749  3.64585e-14  1.15447e-15      1075.04      34.0416
       3858.0519  3.61158e-14  1.13330e-15      1067.59      33.5006
       3859.5289  3.75825e-14  1.15390e-15      1113.56      34.1899
       3861.0059  3.78371e-14  1.16422e-15      1124.17      34.5900
       3862.4828  3.96990e-14  1.19203e-15      1182.87      35.5176
       3863.9598  4.05738e-14  1.20793e-15      1212.17      36.0876
       3865.4368  4.03822e-14  1.19849e-15      1209.73      35.9030
       3866.9138  3.87444e-14  1.16836e-15      1163.67      35.0911
       3868.3908  3.79965e-14  1.15468e-15      1143.98      34.7644
       3869.8677  3.77901e-14  1.15567e-15      1140.35      34.8734
       3871.3447  3.53382e-14  1.12321e-15      1068.99      33.9771
       3872.8217  3.36067e-14  1.08908e-15      1019.36      33.0339
       3874.2987  3.17813e-14  1.06710e-15      966.930      32.4660
       3875.7757  3.23666e-14  1.07056e-15      988.109      32.6827
       3877.2527  3.48068e-14  1.10748e-15      1066.56      33.9356
       3878.7296  3.61475e-14  1.12600e-15      1111.94      34.6369
       3880.2066  3.93074e-14  1.16301e-15      1213.75      35.9119
       3881.6836  4.01014e-14  1.17645e-15      1242.91      36.4631
       3883.1606  3.80588e-14  1.13965e-15      1184.02      35.4549
       3884.6376  3.55847e-14  1.09648e-15      1111.19      34.2391
       3886.1145  3.40612e-14  1.07509e-15      1067.58      33.6964
       3887.5915  3.54301e-14  1.09538e-15      1114.62      34.4603
       3889.0685  3.79645e-14  1.13247e-15      1198.82      35.7603
       3890.5455  4.05372e-14  1.16380e-15      1284.90      36.8887
       3892.0225  4.34654e-14  1.19767e-15      1382.44      38.0926
       3893.4994  4.60899e-14  1.22973e-15      1470.55      39.2358
       3894.9764  4.72735e-14  1.24753e-15      1512.88      39.9243
       3896.4534  4.78242e-14  1.25747e-15      1535.03      40.3614
       3897.9304  4.51466e-14  1.22068e-15      1453.26      39.2934
       3899.4074  4.19576e-14  1.17945e-15      1354.63      38.0796
       3900.8843  4.14937e-14  1.17035e-15      1343.99      37.9079
       3902.3613  4.30916e-14  1.18445e-15      1400.45      38.4939
       3903.8383  4.68550e-14  1.22811e-15      1527.81      40.0452
       3905.3153  5.19404e-14  1.28912e-15      1698.85      42.1641
       3906.7923  5.61700e-14  1.33588e-15      1842.27      43.8143
       3908.2692  5.81468e-14  1.36254e-15      1911.92      44.8017
       3909.7462  5.70326e-14  1.34959e-15      1879.89      44.4846
       3911.2232  5.42311e-14  1.30846e-15      1792.05      43.2377
       3912.7002  4.84641e-14  1.23621e-15      1605.71      40.9581
       3914.1772  3.87334e-14  1.11120e-15      1286.85      36.9175
       3915.6541  3.01044e-14  9.91596e-16      1002.99      33.0371
       3917.1311  2.49843e-14  9.08802e-16      834.846      30.3674
       3918.6081  2.56382e-14  9.19221e-16      859.373      30.8116
       3920.0851  3.41486e-14  1.04280e-15      1148.51      35.0722
       3921.5621  4.61946e-14  1.19893e-15      1559.22      40.4678
       3923.0390  6.13950e-14  1.37009e-15      2079.67      46.4100
       3924.5160  7.28277e-14  1.49303e-15      2475.76      50.7552
       3925.9930  8.03560e-14  1.56514e-15      2741.49      53.3975
       3927.4700  8.45483e-14  1.59613e-15      2894.99      54.6525
       3928.9470  8.26369e-14  1.57403e-15      2839.84      54.0920
       3930.4239  7.42567e-14  1.48961e-15      2560.67      51.3677
       3931.9009  6.49997e-14  1.39349e-15      2248.39      48.2019
       3933.3779  6.51609e-14  1.38982e-15      2260.70      48.2186
       3934.8549  6.93773e-14  1.43352e-15      2414.23      49.8844
       3936.3319  7.25244e-14  1.46299e-15      2531.52      51.0667
       3937.8088  7.45949e-14  1.48575e-15      2611.89      52.0228
       3939.2858  7.44519e-14  1.48098e-15      2614.89      52.0146
       3940.7628  7.24428e-14  1.45999e-15      2551.91      51.4302
       3942.2398  7.01310e-14  1.43669e-15      2477.50      50.7538
       3943.7168  6.44920e-14  1.37529e-15      2284.52      48.7172
       3945.1937  5.64516e-14  1.28647e-15      2005.12      45.6943
       3946.6707  4.67112e-14  1.17181e-15      1663.75      41.7372
       3948.1477  3.69487e-14  1.04964e-15      1319.56      37.4861
       3949.6247  2.70074e-14  9.03468e-16      966.940      32.3467
       3951.1017  2.00695e-14  7.88243e-16      720.223      28.2872
       3952.5786  1.75872e-14  7.45611e-16      632.474      26.8138
       3954.0556  1.88692e-14  7.73510e-16      680.087      27.8790
       3955.5326  2.57259e-14  8.80316e-16      929.269      31.7987
       3957.0096  3.55745e-14  1.02248e-15      1287.84      37.0149
       3958.4866  4.69045e-14  1.16007e-15      1701.80      42.0897
       3959.9636  5.54440e-14  1.26191e-15      2016.20      45.8889
       3961.4405  6.11073e-14  1.31559e-15      2227.16      47.9492
       3962.9175  6.38774e-14  1.34083e-15      2333.70      48.9860
       3964.3945  6.22960e-14  1.32752e-15      2281.71      48.6230
       3965.8715  5.99214e-14  1.30497e-15      2200.32      47.9188
       3967.3485  5.66899e-14  1.26288e-15      2086.89      46.4896
       3968.8254  6.38509e-14  1.33429e-15      2356.50      49.2435
       3970.3024  7.15585e-14  1.40896e-15      2647.97      52.1374
       3971.7794  7.68285e-14  1.46212e-15      2850.95      54.2565
       3973.2564  8.25008e-14  1.51222e-15      3070.09      56.2739
       3974.7334  8.78187e-14  1.54891e-15      3277.24      57.8027
       3976.2103  8.68118e-14  1.54435e-15      3248.70      57.7933
       3977.6873  8.45272e-14  1.52303e-15      3171.89      57.1516
       3979.1643  7.57564e-14  1.44354e-15      2850.54      54.3170
       3980.6413  7.30375e-14  1.41138e-15      2755.75      53.2523
       3982.1183  6.63994e-14  1.34924e-15      2512.03      51.0445
       3983.5952  6.25188e-14  1.30502e-15      2371.74      49.5079
       3985.0722  5.90234e-14  1.26730e-15      2245.07      48.2042
       3986.5492  5.34407e-14  1.21548e-15      2038.19      46.3575
       3988.0262  5.06590e-14  1.17955e-15      1937.30      45.1082
       3989.5032  4.63388e-14  1.12262e-15      1777.11      43.0530
       3990.9801  4.36481e-14  1.09839e-15      1678.90      42.2491
       3992.4571  4.25637e-14  1.07780e-15      1642.28      41.5857
       3993.9341  4.09766e-14  1.06148e-15      1585.87      41.0812
       3995.4111  4.25478e-14  1.07278e-15      1651.23      41.6333
       3996.8881  4.07668e-14  1.04839e-15      1586.26      40.7933
       3998.3650  4.06460e-14  1.04750e-15      1585.66      40.8643
       3999.8420  3.88278e-14  1.03153e-15      1518.71      40.3472
       4001.3190  3.89635e-14  1.03180e-15      1528.15      40.4673
       4002.7960  4.07811e-14  1.05269e-15      1603.82      41.3997
       4004.2730  4.23207e-14  1.06042e-15      1669.02      41.8201
       4005.7499  4.27383e-14  1.06432e-15      1690.22      42.0919
       4007.2269  4.23800e-14  1.06729e-15      1680.87      42.3307
       4008.7039  4.12519e-14  1.04168e-15      1640.99      41.4379
       4010.1809  3.96842e-14  1.02331e-15      1583.49      40.8323
       4011.6579  3.87932e-14  1.01056e-15      1552.72      40.4484
       4013.1348  3.98154e-14  1.03145e-15      1598.50      41.4106
       4014.6118  4.15864e-14  1.04846e-15      1674.58      42.2188
       4016.0888  4.24055e-14  1.05612e-15      1712.63      42.6538
       4017.5658  4.44386e-14  1.07246e-15      1800.10      43.4428
       4019.0428  4.52581e-14  1.07991e-15      1838.82      43.8764
       4020.5197  4.67683e-14  1.09913e-15      1905.54      44.7831
       4021.9967  4.66529e-14  1.10142e-15      1905.90      44.9960
       4023.4737  4.59258e-14  1.08847e-15      1881.88      44.6017
       4024.9507  4.67669e-14  1.09449e-15      1922.74      44.9982
       4026.4277  4.66409e-14  1.09132e-15      1924.05      45.0193
       4027.9046  4.74400e-14  1.09552e-15      1963.59      45.3449
       4029.3816  4.61956e-14  1.08621e-15      1918.34      45.1065
       4030.8586  4.38926e-14  1.05371e-15      1828.42      43.8941
       4032.3356  4.10423e-14  1.02022e-15      1714.74      42.6247
       4033.8126  3.65555e-14  9.65269e-16      1531.79      40.4478
       4035.2895  3.24113e-14  9.18510e-16      1362.24      38.6050
       4036.7665  3.47676e-14  9.43250e-16      1465.72      39.7652
       4038.2435  3.50970e-14  9.44745e-16      1484.02      39.9471
       4039.7205  3.45878e-14  9.30621e-16      1466.57      39.4596
       4041.1975  3.49870e-14  9.37492e-16      1487.57      39.8602
       4042.6745  3.70858e-14  9.61574e-16      1581.07      40.9947
       4044.1514  3.61417e-14  9.50142e-16      1545.12      40.6202
       4045.6284  3.67609e-14  9.58783e-16      1575.93      41.1027
       4047.1054  3.68537e-14  9.56708e-16      1584.34      41.1289
       4048.5824  3.68389e-14  9.53575e-16      1588.08      41.1074
       4050.0594  3.58199e-14  9.42445e-16      1548.32      40.7372
       4051.5363  3.76716e-14  9.61386e-16      1632.70      41.6668
       4053.0133  3.87838e-14  9.67151e-16      1685.52      42.0317
       4054.4903  4.08128e-14  9.89696e-16      1777.86      43.1124
       4055.9673  4.05794e-14  9.84819e-16      1771.23      42.9858
       4057.4443  4.17467e-14  1.00635e-15      1825.72      44.0110
       4058.9212  4.12670e-14  9.92985e-16      1808.28      43.5116
       4060.3982  3.94166e-14  9.73090e-16      1730.75      42.7276
       4061.8752  3.92525e-14  9.69893e-16      1727.36      42.6814
       4063.3522  3.63834e-14  9.36689e-16      1604.84      41.3165
       4064.8292  3.42376e-14  9.08481e-16      1513.53      40.1608
       4066.3061  3.19986e-14  8.77400e-16      1417.46      38.8665
       4067.7831  3.13049e-14  8.65375e-16      1389.58      38.4129
       4069.2601  3.10564e-14  8.62207e-16      1381.45      38.3526
       4070.7371  3.19139e-14  8.76817e-16      1422.64      39.0863
       4072.2141  3.37945e-14  8.99752e-16      1509.62      40.1924
       4073.6910  3.51321e-14  9.14467e-16      1572.65      40.9351
       4075.1680  3.51392e-14  9.12858e-16      1576.12      40.9450
       4076.6450  3.42525e-14  9.01880e-16      1539.59      40.5381
       4078.1220  3.43032e-14  9.05080e-16      1545.18      40.7691
       4079.5990  3.45047e-14  9.04755e-16      1557.67      40.8440
       4081.0759  3.43022e-14  9.00848e-16      1552.11      40.7618
       4082.5529  3.29582e-14  8.81110e-16      1494.98      39.9671
       4084.0299  3.00714e-14  8.42502e-16      1367.48      38.3121
       4085.5069  2.93739e-14  8.32259e-16      1339.14      37.9423
       4086.9839  3.07329e-14  8.49181e-16      1404.73      38.8141
       4088.4608  3.32193e-14  8.77753e-16      1522.43      40.2273
       4089.9378  3.94866e-14  9.54903e-16      1814.54      43.8810
       4091.4148  4.83345e-14  1.05080e-15      2226.90      48.4131
       4092.8918  5.34807e-14  1.09730e-15      2470.03      50.6794
       4094.3688  5.33146e-14  1.09480e-15      2468.33      50.6865
       4095.8457  5.39816e-14  1.10144e-15      2505.41      51.1203
       4097.3227  5.64603e-14  1.11960e-15      2626.97      52.0925
       4098.7997  5.81820e-14  1.13550e-15      2713.78      52.9633
       4100.2767  5.99499e-14  1.15374e-15      2803.10      53.9459
       4101.7537  6.21846e-14  1.17110e-15      2914.81      54.8935
       4103.2306  6.36748e-14  1.18322e-15      2992.07      55.5994
       4104.7076  6.54512e-14  1.19959e-15      3083.15      56.5080
       4106.1846  6.86264e-14  1.22714e-15      3241.10      57.9555
       4107.6616  7.21521e-14  1.25254e-15      3416.12      59.3028
       4109.1386  7.20498e-14  1.24973e-15      3419.48      59.3122
       4110.6155  6.85862e-14  1.22069e-15      3262.67      58.0684
       4112.0925  6.65797e-14  1.19949e-15      3174.22      57.1862
       4113.5695  6.32448e-14  1.16843e-15      3022.01      55.8308
       4115.0465  5.94633e-14  1.13756e-15      2847.79      54.4797
       4116.5235  5.81786e-14  1.12318e-15      2792.41      53.9097
       4118.0004  5.96778e-14  1.13262e-15      2870.36      54.4764
       4119.4774  5.98593e-14  1.13478e-15      2884.77      54.6876
       4120.9544  5.77825e-14  1.11702e-15      2789.94      53.9338
       4122.4314  5.81649e-14  1.11984e-15      2813.67      54.1714
       4123.9084  5.93200e-14  1.12877e-15      2874.88      54.7046
       4125.3854  5.85436e-14  1.12071e-15      2842.21      54.4092
       4126.8623  5.81685e-14  1.11409e-15      2828.69      54.1775
       4128.3393  5.69210e-14  1.10431e-15      2772.59      53.7902
       4129.8163  5.34473e-14  1.07167e-15      2607.67      52.2863
       4131.2933  5.08493e-14  1.04411e-15      2484.97      51.0251
       4132.7703  4.89868e-14  1.02324e-15      2397.72      50.0839
       4134.2472  4.75036e-14  1.00848e-15      2328.77      49.4386
       4135.7242  4.54244e-14  9.89417e-16      2230.32      48.5799
       4137.2012  4.26889e-14  9.56979e-16      2099.02      47.0547
       4138.6782  4.08630e-14  9.35914e-16      2012.09      46.0844
       4140.1552  4.00847e-14  9.25020e-16      1977.34      45.6302
       4141.6321  3.83469e-14  9.03045e-16      1895.37      44.6348
       4143.1091  3.67441e-14  8.84071e-16      1819.79      43.7845
       4144.5861  3.58607e-14  8.73013e-16      1779.28      43.3156
       4146.0631  3.37098e-14  8.52264e-16      1675.34      42.3564
       4147.5401  3.18839e-14  8.29122e-16      1587.30      41.2769
       4149.0170  3.09877e-14  8.16299e-16      1545.76      40.7193
       4150.4940  3.23264e-14  8.31759e-16      1616.39      41.5897
       4151.9710  3.61523e-14  8.72686e-16      1812.29      43.7471
       4153.4480  4.05412e-14  9.21367e-16      2037.56      46.3070
       4154.9250  4.19484e-14  9.34510e-16      2113.80      47.0904
       4156.4019  4.25992e-14  9.39338e-16      2152.49      47.4636
       4157.8789  4.40430e-14  9.56219e-16      2231.60      48.4504
       4159.3559  4.50367e-14  9.63590e-16      2288.28      48.9591
       4160.8329  4.84927e-14  9.94852e-16      2471.03      50.6944
       4162.3099  5.46944e-14  1.05519e-15      2795.24      53.9273
       4163.7868  5.89379e-14  1.09538e-15      3021.04      56.1473
       4165.2638  6.21199e-14  1.12070e-15      3193.88      57.6207
       4166.7408  6.75838e-14  1.16372e-15      3485.60      60.0180
       4168.2178  7.43843e-14  1.21790e-15      3848.44      63.0107
       4169.6948  7.92331e-14  1.25277e-15      4112.31      65.0207
       4171.1717  8.04483e-14  1.26226e-15      4187.25      65.6993
       4172.6487  8.05293e-14  1.25970e-15      4203.00      65.7467
       4174.1257  8.16909e-14  1.26549e-15      4275.89      66.2385
       4175.6027  8.33333e-14  1.27464e-15      4374.68      66.9137
       4177.0797  8.39616e-14  1.27714e-15      4420.54      67.2407
       4178.5566  8.42784e-14  1.27699e-15      4449.81      67.4239
       4180.0336  8.32886e-14  1.26982e-15      4408.92      67.2186
       4181.5106  8.12445e-14  1.25512e-15      4310.16      66.5864
       4182.9876  7.67597e-14  1.21889e-15      4080.72      64.7992
       4184.4646  7.26184e-14  1.18380e-15      3868.71      63.0661
       4185.9415  6.66196e-14  1.13338e-15      3556.56      60.5070
       4187.4185  5.99069e-14  1.07492e-15      3204.50      57.4987
       4188.8955  5.38667e-14  1.02071e-15      2887.23      54.7097
       4190.3725  4.99100e-14  9.84097e-16      2680.59      52.8544
       4191.8495  4.65692e-14  9.49999e-16      2505.92      51.1202
       4193.3264  4.45849e-14  9.30481e-16      2403.63      50.1635
       4194.8034  4.34843e-14  9.20155e-16      2348.62      49.6983
       4196.2804  4.20927e-14  9.04360e-16      2277.46      48.9311
       4197.7574  4.02671e-14  8.83609e-16      2182.47      47.8913
       4199.2344  3.94755e-14  8.75583e-16      2143.38      47.5411
       4200.7113  4.02502e-14  8.78886e-16      2189.34      47.8056
       4202.1883  4.19953e-14  8.97433e-16      2288.34      48.9015
       4203.6653  4.41690e-14  9.18969e-16      2410.90      50.1606
       4205.1423  4.49809e-14  9.29006e-16      2459.08      50.7883
       4206.6193  4.50592e-14  9.28791e-16      2467.09      50.8533
       4208.0963  4.39469e-14  9.18040e-16      2409.89      50.3421
       4209.5732  4.20852e-14  8.99780e-16      2311.38      49.4173
       4211.0502  4.05700e-14  8.83931e-16      2231.61      48.6218
       4212.5272  3.94394e-14  8.69741e-16      2172.77      47.9152
       4214.0042  4.00759e-14  8.74340e-16      2211.44      48.2472
       4215.4812  4.05276e-14  8.78641e-16      2239.86      48.5604
       4216.9581  4.21564e-14  8.89891e-16      2333.63      49.2613
       4218.4351  4.53026e-14  9.23108e-16      2512.33      51.1925
       4219.9121  5.08290e-14  9.73499e-16      2823.76      54.0818
       4221.3891  6.03651e-14  1.05543e-15      3359.44      58.7367
       4222.8661  6.77160e-14  1.11852e-15      3775.61      62.3650
       4224.3430  7.12386e-14  1.14664e-15      3979.81      64.0581
       4225.8200  7.28391e-14  1.15647e-15      4077.35      64.7364
       4227.2970  7.38636e-14  1.16144e-15      4143.18      65.1479
       4228.7740  7.54335e-14  1.17382e-15      4240.03      65.9791
       4230.2510  7.58172e-14  1.17494e-15      4270.71      66.1833
       4231.7279  7.49121e-14  1.16487e-15      4228.72      65.7559
       4233.2049  7.32099e-14  1.15528e-15      4141.31      65.3516
       4234.6819  7.36586e-14  1.15394e-15      4175.39      65.4120
       4236.1589  7.49761e-14  1.16380e-15      4258.93      66.1085
       4237.6359  7.60999e-14  1.17066e-15      4331.70      66.6353
       4239.1128  7.75057e-14  1.17939e-15      4420.72      67.2691
       4240.5898  7.91649e-14  1.19324e-15      4524.47      68.1967
       4242.0668  7.84991e-14  1.18591e-15      4495.41      67.9137
       4243.5438  7.77594e-14  1.17777e-15      4461.98      67.5829
       4245.0208  7.48711e-14  1.15867e-15      4304.40      66.6130
       4246.4977  7.30500e-14  1.14351e-15      4207.68      65.8664
       4247.9747  7.25998e-14  1.13838e-15      4189.44      65.6913
       4249.4517  7.21532e-14  1.13289e-15      4170.50      65.4817
       4250.9287  7.17814e-14  1.13131e-15      4155.72      65.4963
       4252.4057  7.10280e-14  1.12368e-15      4118.70      65.1590
       4253.8826  6.97216e-14  1.11208e-15      4048.95      64.5819
       4255.3596  6.81681e-14  1.09710e-15      3964.95      63.8124
       4256.8366  6.67755e-14  1.08801e-15      3890.14      63.3843
       4258.3136  6.34039e-14  1.05905e-15      3700.17      61.8046
       4259.7906  6.13522e-14  1.04217e-15      3586.52      60.9228
       4261.2675  6.22100e-14  1.04429e-15      3642.42      61.1436
       4262.7445  6.23911e-14  1.04543e-15      3659.19      61.3133
       4264.2215  6.43029e-14  1.06000e-15      3777.68      62.2733
       4265.6985  6.43934e-14  1.05888e-15      3789.70      62.3176
       4267.1755  6.33150e-14  1.05136e-15      3732.89      61.9857
       4268.6524  6.06314e-14  1.03106e-15      3581.10      60.8977
       4270.1294  6.03823e-14  1.02478e-15      3572.90      60.6375
       4271.6064  5.98252e-14  1.01627e-15      3546.40      60.2435
       4273.0834  5.80466e-14  1.00483e-15      3447.24      59.6742
       4274.5604  5.53767e-14  9.80197e-16      3294.69      58.3177
       4276.0373  5.40178e-14  9.70075e-16      3219.70      57.8208
       4277.5143  5.30255e-14  9.58307e-16      3166.35      57.2241
       4278.9913  5.35999e-14  9.66159e-16      3206.75      57.8029
       4280.4683  5.34614e-14  9.61753e-16      3204.62      57.6501
       4281.9453  5.40850e-14  9.65052e-16      3248.31      57.9604
       4283.4223  5.58771e-14  9.82181e-16      3362.72      59.1083
       4284.8992  5.66291e-14  9.87183e-16      3414.87      59.5295
       4286.3762  5.90758e-14  1.00254e-15      3568.94      60.5665
       4287.8532  6.22382e-14  1.02928e-15      3766.14      62.2836
       4289.3302  6.60010e-14  1.05792e-15      3999.50      64.1073
       4290.8072  7.02880e-14  1.09311e-15      4265.38      66.3348
       4292.2841  7.42698e-14  1.12095e-15      4513.49      68.1216
       4293.7611  7.50377e-14  1.12649e-15      4566.27      68.5502
       4295.2381  7.79590e-14  1.14126e-15      4750.46      69.5429
       4296.7151  7.88643e-14  1.15135e-15      4811.78      70.2477
       4298.1921  7.87182e-14  1.14640e-15      4809.00      70.0353
       4299.6690  7.60401e-14  1.12811e-15      4651.49      69.0080
       4301.1460  7.45458e-14  1.11279e-15      4566.04      68.1602
       4302.6230  7.42609e-14  1.11511e-15      4554.54      68.3914
       4304.1000  7.42145e-14  1.11441e-15      4558.00      68.4432
       4305.5770  7.54578e-14  1.11889e-15      4640.85      68.8145
       4307.0539  7.53480e-14  1.11949e-15      4640.68      68.9496
       4308.5309  7.68692e-14  1.12603e-15      4741.55      69.4574
       4310.0079  7.74436e-14  1.13400e-15      4784.87      70.0647
       4311.4849  7.54469e-14  1.11785e-15      4670.25      69.1959
       4312.9619  7.50340e-14  1.11381e-15      4653.74      69.0806
       4314.4388  7.34081e-14  1.10141e-15      4561.44      68.4394
       4315.9158  7.07935e-14  1.08268e-15      4407.21      67.4017
       4317.3928  6.95035e-14  1.06807e-15      4334.86      66.6146
       4318.8698  6.46051e-14  1.03369e-15      4036.64      64.5869
       4320.3468  5.91185e-14  9.90162e-16      3700.53      61.9794
       4321.8237  5.33156e-14  9.38827e-16      3343.31      58.8718
       4323.3007  4.82494e-14  8.93382e-16      3031.13      56.1241
       4324.7777  4.83004e-14  8.89795e-16      3039.86      56.0006
       4326.2547  5.34992e-14  9.39033e-16      3373.13      59.2061
       4327.7317  6.63517e-14  1.03799e-15      4190.99      65.5628
       4329.2086  8.41337e-14  1.16519e-15      5323.63      73.7286
       4330.6856  9.57666e-14  1.23891e-15      6070.23      78.5288
       4332.1626  1.01771e-13  1.27903e-15      6461.92      81.2113
       4333.6396  1.04061e-13  1.29035e-15      6618.65      82.0704
       4335.1166  1.02164e-13  1.27955e-15      6508.58      81.5167
       4336.5935  1.01789e-13  1.27301e-15      6495.26      81.2318
       4338.0705  1.03995e-13  1.28672e-15      6646.63      82.2385
       4339.5475  1.09870e-13  1.32401e-15      7032.71      84.7485
       4341.0245  1.15350e-13  1.35513e-15      7393.03      86.8529
       4342.5015  1.20338e-13  1.37811e-15      7720.89      88.4197
       4343.9784  1.26520e-13  1.41576e-15      8125.33      90.9227
       4345.4554  1.37046e-13  1.47356e-15      8809.82      94.7254
       4346.9324  1.41760e-13  1.49615e-15      9121.60      96.2705
       4348.4094  1.46959e-13  1.52010e-15      9465.28      97.9056
       4349.8864  1.42840e-13  1.50077e-15      9209.75      96.7632
       4351.3633  1.30537e-13  1.43386e-15      8425.70      92.5501
       4352.8403  1.20728e-13  1.37694e-15      7801.36      88.9771
       4354.3173  1.07785e-13  1.30221e-15      6972.79      84.2423
       4355.7943  9.98910e-14  1.25433e-15      6469.75      81.2404
       4357.2713  9.69531e-14  1.23617e-15      6287.13      80.1620
       4358.7482  9.69535e-14  1.23525e-15      6294.84      80.2003
       4360.2252  8.79234e-14  1.17476e-15      5715.56      76.3668
       4361.7022  8.21696e-14  1.13746e-15      5348.61      74.0403
       4363.1792  8.01350e-14  1.12244e-15      5223.38      73.1632
       4364.6562  7.91428e-14  1.11688e-15      5165.92      72.9027
       4366.1332  7.72356e-14  1.10203e-15      5049.30      72.0457
       4367.6101  7.40536e-14  1.07983e-15      4849.06      70.7077
       4369.0871  7.13219e-14  1.05568e-15      4677.77      69.2383
       4370.5641  6.67893e-14  1.02001e-15      4387.92      67.0128
       4372.0411  6.60259e-14  1.01447e-15      4345.50      66.7675
       4373.5181  7.02546e-14  1.04923e-15      4632.76      69.1887
       4374.9950  7.40850e-14  1.07483e-15      4895.52      71.0246
       4376.4720  7.48053e-14  1.07316e-15      4954.11      71.0722
       4377.9490  7.00146e-14  1.04339e-15      4647.83      69.2640
       4379.4260  6.61805e-14  1.01179e-15      4404.11      67.3318
       4380.9030  6.42337e-14  9.95079e-16      4284.58      66.3747
       4382.3799  6.58172e-14  1.00631e-15      4400.45      67.2808
       4383.8569  7.02713e-14  1.03783e-15      4709.08      69.5483
       4385.3339  7.12448e-14  1.04210e-15      4785.28      69.9948
       4386.8109  7.19145e-14  1.04711e-15      4841.18      70.4900
       4388.2879  7.71949e-14  1.08216e-15      5208.26      73.0122
       4389.7648  8.30404e-14  1.12356e-15      5615.17      75.9746
       4391.2418  8.83316e-14  1.15385e-15      5986.34      78.1978
       4392.7188  8.73249e-14  1.14808e-15      5930.79      77.9734
       4394.1958  8.98797e-14  1.16013e-15      6117.04      78.9561
       4395.6728  8.59162e-14  1.13560e-15      5859.40      77.4471
       4397.1497  8.13145e-14  1.10346e-15      5556.62      75.4046
       4398.6267  7.77346e-14  1.07965e-15      5323.01      73.9308
       4400.1037  7.81723e-14  1.08204e-15      5364.62      74.2558
       4401.5807  7.51697e-14  1.05556e-15      5169.37      72.5901
       4403.0577  7.50046e-14  1.05683e-15      5168.37      72.8231
       4404.5346  7.75133e-14  1.07379e-15      5351.20      74.1303
       4406.0116  8.06499e-14  1.09292e-15      5577.59      75.5840
       4407.4886  8.48541e-14  1.11728e-15      5877.92      77.3951
       4408.9656  8.47430e-14  1.11788e-15      5878.95      77.5519
       4410.4426  8.49227e-14  1.12016e-15      5899.68      77.8185
       4411.9195  8.35415e-14  1.10887e-15      5811.84      77.1420
       4413.3965  8.25954e-14  1.10049e-15      5753.88      76.6636
       4414.8735  8.08877e-14  1.09174e-15      5642.55      76.1576
       4416.3505  7.95313e-14  1.07962e-15      5555.41      75.4132
       4417.8275  7.84753e-14  1.07006e-15      5488.90      74.8447
       4419.3044  7.61233e-14  1.05484e-15      5331.36      73.8767
       4420.7814  7.30651e-14  1.03426e-15      5123.86      72.5297
       4422.2584  6.95452e-14  1.01084e-15      4883.34      70.9793
       4423.7354  6.49169e-14  9.74489e-16      4564.26      68.5155
       4425.2124  5.87009e-14  9.29449e-16      4132.56      65.4335
       4426.6893  5.06699e-14  8.63053e-16      3571.79      60.8378
       4428.1663  4.50744e-14  8.15422e-16      3181.22      57.5501
       4429.6433  4.07539e-14  7.78374e-16      2879.43      54.9954
       4431.1203  4.27605e-14  7.91499e-16      3024.14      55.9770
       4432.5973  4.63602e-14  8.27284e-16      3281.92      58.5648
       4434.0742  4.95612e-14  8.53772e-16      3511.94      60.4988
       4435.5512  5.19142e-14  8.68644e-16      3682.98      61.6247
       4437.0282  5.03117e-14  8.56932e-16      3573.30      60.8620
       4438.5052  5.13514e-14  8.66481e-16      3651.23      61.6093
       4439.9822  5.45217e-14  8.92064e-16      3881.00      63.4996
       4441.4591  5.35547e-14  8.81207e-16      3816.45      62.7972
       4442.9361  5.27365e-14  8.71777e-16      3762.37      62.1950
       4444.4131  5.26664e-14  8.70047e-16      3761.59      62.1413
       4445.8901  5.11698e-14  8.63273e-16      3658.80      61.7268
       4447.3671  5.31742e-14  8.75211e-16      3805.23      62.6314
       4448.8441  5.63710e-14  9.01740e-16      4037.29      64.5826
       4450.3210  5.85060e-14  9.18004e-16      4193.62      65.8012
       4451.7980  5.77073e-14  9.11022e-16      4139.69      65.3530
       4453.2750  5.54207e-14  8.91308e-16      3978.84      63.9900
       4454.7520  5.69434e-14  9.03343e-16      4091.43      64.9059
       4456.2290  6.21791e-14  9.44847e-16      4471.19      67.9423
       4457.7059  6.98306e-14  9.95444e-16      5025.42      71.6380
       4459.1829  7.54397e-14  1.03765e-15      5433.44      74.7351
       4460.6599  7.85651e-14  1.05710e-15      5663.07      76.1971
       4462.1369  8.09681e-14  1.07015e-15      5840.96      77.1996
       4463.6139  8.10716e-14  1.07315e-15      5853.12      77.4785
       4465.0908  8.19215e-14  1.07833e-15      5919.27      77.9149
       4466.5678  7.83994e-14  1.05172e-15      5668.20      76.0383
       4468.0448  7.82526e-14  1.05184e-15      5661.00      76.0932
       4469.5218  7.74931e-14  1.04991e-15      5609.45      75.9991
       4470.9988  7.58059e-14  1.03690e-15      5490.63      75.1030
       4472.4757  7.23006e-14  1.01238e-15      5239.91      73.3710
       4473.9527  7.34029e-14  1.02056e-15      5323.02      74.0087
       4475.4297  7.36629e-14  1.02221e-15      5345.12      74.1732
       4476.9067  7.62190e-14  1.03967e-15      5533.94      75.4863
       4478.3837  8.37943e-14  1.08720e-15      6089.52      79.0095
       4479.8606  8.72881e-14  1.10629e-15      6349.23      80.4701
       4481.3376  9.10102e-14  1.13130e-15      6626.03      82.3646
       4482.8146  8.87964e-14  1.11571e-15      6470.78      81.3043
       4484.2916  8.69794e-14  1.10327e-15      6344.48      80.4752
       4485.7686  8.54280e-14  1.09513e-15      6237.75      79.9639
       4487.2455  8.61236e-14  1.09668e-15      6295.82      80.1699
       4488.7225  8.80032e-14  1.10947e-15      6440.66      81.1981
       4490.1995  9.18326e-14  1.13200e-15      6728.70      82.9433
       4491.6765  9.58394e-14  1.15534e-15      7030.42      84.7516
       4493.1535  9.59269e-14  1.15554e-15      7044.98      84.8645
       4494.6304  9.91567e-14  1.17218e-15      7290.62      86.1861
       4496.1074  1.06732e-13  1.21632e-15      7856.70      89.5352
       4497.5844  1.11637e-13  1.24312e-15      8227.30      91.6137
       4499.0614  1.12040e-13  1.24359e-15      8266.51      91.7551
       4500.5384  1.08091e-13  1.22152e-15      7984.41      90.2309
       4502.0153  1.07475e-13  1.21643e-15      7947.97      89.9568
       4503.4923  1.08745e-13  1.22473e-15      8051.04      90.6738
       4504.9693  1.11333e-13  1.23664e-15      8251.98      91.6598
       4506.4463  1.14616e-13  1.25380e-15      8505.05      93.0376
       4507.9233  1.17839e-13  1.27132e-15      8754.12      94.4451
       4509.4002  1.23038e-13  1.29487e-15      9150.74      96.3044
       4510.8772  1.26054e-13  1.31213e-15      9386.37      97.7058
       4512.3542  1.26526e-13  1.31260e-15      9432.94      97.8586
       4513.8312  1.25779e-13  1.30867e-15      9388.60      97.6837
       4515.3082  1.24734e-13  1.30381e-15      9321.41      97.4342
       4516.7851  1.24022e-13  1.29908e-15      9278.29      97.1867
       4518.2621  1.20377e-13  1.27908e-15      9014.38      95.7837
       4519.7391  1.17660e-13  1.26426e-15      8819.51      94.7659
       4521.2161  1.17047e-13  1.25887e-15      8783.47      94.4689
       4522.6931  1.20228e-13  1.27695e-15      9032.50      95.9354
       4524.1700  1.22199e-13  1.28523e-15      9191.11      96.6676
       4525.6470  1.23276e-13  1.28861e-15      9282.67      97.0325
       4527.1240  1.23684e-13  1.29010e-15      9324.07      97.2556
       4528.6010  1.22492e-13  1.28279e-15      9244.80      96.8155
       4530.0780  1.14747e-13  1.24330e-15      8670.16      93.9423
       4531.5550  1.08351e-13  1.20718e-15      8196.23      91.3173
       4533.0319  1.02206e-13  1.17262e-15      7741.79      88.8225
       4534.5089  9.71594e-14  1.14278e-15      7369.44      86.6790
       4535.9859  9.82332e-14  1.14787e-15      7460.95      87.1820
       4537.4629  1.04376e-13  1.18348e-15      7938.23      90.0081
       4538.9399  1.08229e-13  1.20468e-15      8242.32      91.7440
       4540.4168  1.11263e-13  1.21931e-15      8484.82      92.9841
       4541.8938  1.11088e-13  1.21845e-15      8482.40      93.0376
       4543.3708  1.13680e-13  1.22885e-15      8691.41      93.9519
       4544.8478  1.16279e-13  1.24473e-15      8901.53      95.2879
       4546.3248  1.19433e-13  1.26018e-15      9153.48      96.5815
       4547.8017  1.22162e-13  1.27373e-15      9373.32      97.7313
       4549.2787  1.21586e-13  1.26993e-15      9339.74      97.5511
       4550.7557  1.20601e-13  1.26346e-15      9274.61      97.1641
       4552.2327  1.20183e-13  1.26002e-15      9251.28      96.9920
       4553.7097  1.23576e-13  1.27689e-15      9521.45      98.3831
       4555.1866  1.22273e-13  1.26925e-15      9429.96      97.8870
       4556.6636  1.20839e-13  1.26113e-15      9328.15      97.3530
       4558.1406  1.18247e-13  1.24581e-15      9136.69      96.2610
       4559.6176  1.17646e-13  1.24359e-15      9098.91      96.1809
       4561.0946  1.19408e-13  1.25227e-15      9243.92      96.9441
       4562.5715  1.18481e-13  1.24777e-15      9180.86      96.6874
       4564.0485  1.17362e-13  1.24188e-15      9101.03      96.3030
       4565.5255  1.15891e-13  1.23345e-15      8993.61      95.7210
       4567.0025  1.16769e-13  1.23843e-15      9067.90      96.1723
       4568.4795  1.17194e-13  1.23948e-15      9106.83      96.3165
       4569.9564  1.21553e-13  1.26110e-15      9451.65      98.0601
       4571.4334  1.25423e-13  1.27999e-15      9758.86      99.5932
       4572.9104  1.31465e-13  1.30892e-15      10235.6      101.910
       4574.3874  1.32384e-13  1.31258e-15      10313.9      102.261
       4575.8644  1.33097e-13  1.31663e-15      10376.2      102.643
       4577.3413  1.35239e-13  1.32536e-15      10551.4      103.405
       4578.8183  1.37561e-13  1.33674e-15      10741.0      104.375
       4580.2953  1.43274e-13  1.36369e-15      11196.0      106.564
       4581.7723  1.47934e-13  1.38419e-15      11569.3      108.252
       4583.2493  1.47531e-13  1.38116e-15      11547.0      108.101
       4584.7262  1.47470e-13  1.38240e-15      11548.2      108.253
       4586.2032  1.46858e-13  1.37936e-15      11505.2      108.062
       4587.6802  1.43418e-13  1.36145e-15      11240.6      106.705
       4589.1572  1.42692e-13  1.35972e-15      11188.5      106.616
       4590.6342  1.40492e-13  1.34806e-15      11020.7      105.747
       4592.1111  1.32525e-13  1.31054e-15      10400.3      102.848
       4593.5881  1.26396e-13  1.27705e-15      9923.58      100.263
       4595.0651  1.14732e-13  1.21621e-15      9011.67      95.5278
       4596.5421  1.02712e-13  1.15308e-15      8071.05      90.6086
       4598.0191  9.40380e-14  1.10430e-15      7392.68      86.8133
       4599.4960  8.25320e-14  1.03778e-15      6490.96      81.6195
       4600.9730  7.57523e-14  9.93606e-16      5960.29      78.1782
       4602.4500  6.93069e-14  9.51457e-16      5455.39      74.8925
       4603.9270  6.70444e-14  9.35936e-16      5279.46      73.7009
       4605.4040  7.00395e-14  9.53915e-16      5517.56      75.1474
       4606.8809  7.48303e-14  9.87799e-16      5897.39      77.8486
       4608.3579  7.87436e-14  1.00938e-15      6208.34      79.5822
       4609.8349  8.05413e-14  1.02060e-15      6352.68      80.4995
       4611.3119  8.34396e-14  1.03935e-15      6583.98      82.0123
       4612.7889  8.46502e-14  1.04783e-15      6682.25      82.7152
       4614.2659  8.86608e-14  1.07110e-15      7001.71      84.5866
       4615.7428  9.30549e-14  1.09631e-15      7353.80      86.6374
       4617.2198  1.01118e-13  1.14092e-15      7997.23      90.2327
       4618.6968  1.04572e-13  1.16105e-15      8276.77      91.8966
       4620.1738  1.06584e-13  1.17058e-15      8442.63      92.7225
       4621.6508  1.07549e-13  1.17422e-15      8526.92      93.0967
       4623.1277  1.12501e-13  1.20034e-15      8927.79      95.2564
       4624.6047  1.16445e-13  1.21979e-15      9249.74      96.8935
       4626.0817  1.18506e-13  1.22987e-15      9423.58      97.7988
       4627.5587  1.19081e-13  1.23400e-15      9479.66      98.2354
       4629.0357  1.16553e-13  1.22025e-15      9289.36      97.2553
       4630.5126  1.13167e-13  1.19909e-15      9030.44      95.6847
       4631.9896  1.08357e-13  1.17525e-15      8657.10      93.8959
       4633.4666  1.08107e-13  1.17370e-15      8647.60      93.8856
       4634.9436  1.08009e-13  1.17100e-15      8649.45      93.7748
       4636.4206  1.08147e-13  1.17196e-15      8670.14      93.9562
       4637.8975  1.05143e-13  1.15462e-15      8438.78      92.6700
       4639.3745  9.66417e-14  1.10829e-15      7765.16      89.0509
       4640.8515  8.90653e-14  1.06535e-15      7164.41      85.6969
       4642.3285  8.28777e-14  1.02531e-15      6674.15      82.5684
       4643.8055  7.79194e-14  9.95585e-16      6281.89      80.2645
       4645.2824  7.55182e-14  9.77563e-16      6095.04      78.8985
       4646.7594  7.29662e-14  9.62700e-16      5895.49      77.7839
       4648.2364  7.30938e-14  9.62570e-16      5911.67      77.8506
       4649.7134  7.31638e-14  9.64498e-16      5922.48      78.0745
       4651.1904  7.33113e-14  9.63816e-16      5939.53      78.0863
       4652.6673  7.39360e-14  9.64386e-16      5994.37      78.1876
       4654.1443  7.74015e-14  9.89904e-16      6279.72      80.3126
       4655.6213  8.09540e-14  1.00905e-15      6572.29      81.9200
       4657.0983  8.26132e-14  1.02077e-15      6710.74      82.9179
       4658.5753  8.42081e-14  1.02987e-15      6843.93      83.7020
       4660.0522  8.42763e-14  1.02987e-15      6852.58      83.7393
       4661.5292  8.45199e-14  1.03007e-15      6875.28      83.7911
       4663.0062  8.53032e-14  1.03431e-15      6941.91      84.1712
       4664.4832  8.28251e-14  1.02012e-15      6743.08      83.0514
       4665.9602  7.93044e-14  9.96158e-16      6459.77      81.1424
       4667.4371  7.63219e-14  9.80275e-16      6220.02      79.8897
       4668.9141  7.45651e-14  9.68796e-16      6079.97      78.9948
       4670.3911  6.96844e-14  9.37862e-16      5684.92      76.5117
       4671.8681  6.96551e-14  9.35368e-16      5685.46      76.3475
       4673.3451  6.53197e-14  9.07680e-16      5334.33      74.1257
       4674.8220  6.48332e-14  9.03829e-16      5297.33      73.8492
       4676.2990  6.16406e-14  8.81860e-16      5039.15      72.0925
       4677.7760  5.78924e-14  8.54812e-16      4735.31      69.9193
       4679.2530  5.50914e-14  8.34794e-16      4509.10      68.3260
       4680.7300  5.26351e-14  8.16392e-16      4311.37      66.8711
       4682.2069  5.10807e-14  8.03727e-16      4187.26      65.8842
       4683.6839  5.03159e-14  7.96760e-16      4128.94      65.3826
       4685.1609  5.01929e-14  7.95645e-16      4123.99      65.3723
       4686.6379  5.07420e-14  7.99548e-16      4174.29      65.7749
       4688.1149  5.09094e-14  8.00077e-16      4193.28      65.9003
       4689.5918  5.05855e-14  7.97918e-16      4171.89      65.8059
       4691.0688  5.11942e-14  8.01553e-16      4227.60      66.1921
       4692.5458  4.99367e-14  7.93576e-16      4129.15      65.6189
       4694.0228  5.07602e-14  7.94554e-16      4202.78      65.7865
       4695.4998  5.04136e-14  7.91061e-16      4179.66      65.5848
       4696.9768  5.23975e-14  8.06000e-16      4349.99      66.9133
       4698.4537  5.27932e-14  8.11608e-16      4388.89      67.4720
       4699.9307  5.49810e-14  8.26334e-16      4577.20      68.7927
       4701.4077  5.43092e-14  8.19671e-16      4528.48      68.3469
       4702.8847  5.45241e-14  8.20782e-16      4554.37      68.5594
       4704.3617  5.38200e-14  8.14191e-16      4503.76      68.1330
       4705.8386  5.28443e-14  8.07443e-16      4430.60      67.6981
       4707.3156  5.41846e-14  8.16537e-16      4551.72      68.5923
       4708.7926  5.38557e-14  8.12045e-16      4532.78      68.3460
       4710.2696  5.36586e-14  8.10937e-16      4524.88      68.3840
       4711.7466  5.16816e-14  7.95716e-16      4366.66      67.2312
       4713.2235  5.24404e-14  7.99972e-16      4439.69      67.7270
       4714.7005  5.30698e-14  8.04538e-16      4500.97      68.2347
       4716.1775  5.26021e-14  7.98961e-16      4468.43      67.8700
       4717.6545  5.36581e-14  8.07352e-16      4565.42      68.6923
       4719.1315  5.86634e-14  8.42494e-16      4999.25      71.7968
       4720.6084  6.16805e-14  8.62400e-16      5264.94      73.6130
       4722.0854  6.21962e-14  8.65740e-16      5318.05      74.0246
       4723.5624  6.38878e-14  8.75797e-16      5474.13      75.0413
       4725.0394  6.42728e-14  8.78041e-16      5520.62      75.4181
       4726.5164  6.53093e-14  8.82723e-16      5625.02      76.0280
       4727.9933  6.68556e-14  8.90989e-16      5775.22      76.9667
       4729.4703  6.67273e-14  8.88664e-16      5781.96      77.0034
       4730.9473  6.61122e-14  8.81788e-16      5747.05      76.6527
       4732.4243  6.57513e-14  8.79776e-16      5733.34      76.7142
       4733.9013  6.36713e-14  8.64497e-16      5568.22      75.6025
       4735.3782  6.18270e-14  8.49797e-16      5422.35      74.5288
       4736.8552  6.09668e-14  8.44147e-16      5361.63      74.2372
       4738.3322  5.98981e-14  8.35243e-16      5282.10      73.6558
       4739.8092  5.78164e-14  8.20155e-16      5112.51      72.5237
       4741.2862  5.31413e-14  7.86406e-16      4711.97      69.7296
       4742.7631  5.11576e-14  7.70725e-16      4548.36      68.5243
       4744.2401  4.97620e-14  7.60111e-16      4435.96      67.7589
       4745.7171  4.76829e-14  7.43389e-16      4261.60      66.4395
       4747.1941  4.67022e-14  7.33623e-16      4184.73      65.7358
       4748.6711  4.65114e-14  7.32387e-16      4178.37      65.7942
       4750.1480  4.73904e-14  7.39802e-16      4268.30      66.6315
       4751.6250  4.92143e-14  7.51810e-16      4443.68      67.8827
       4753.1020  5.09840e-14  7.62788e-16      4614.45      69.0382
       4754.5790  5.20495e-14  7.70474e-16      4720.38      69.8745
       4756.0560  5.22224e-14  7.70768e-16      4743.91      70.0170
       4757.5329  5.23684e-14  7.69281e-16      4763.65      69.9772
       4759.0099  5.18758e-14  7.66001e-16      4724.23      69.7583
       4760.4869  5.27055e-14  7.71926e-16      4804.45      70.3661
       4761.9639  5.22578e-14  7.69801e-16      4767.61      70.2308
       4763.4409  5.08790e-14  7.60099e-16      4645.31      69.3977
       4764.9178  5.10605e-14  7.59112e-16      4665.53      69.3620
       4766.3948  5.13179e-14  7.61727e-16      4693.87      69.6726
       4767.8718  5.37002e-14  7.78146e-16      4917.38      71.2556
       4769.3488  5.40910e-14  7.80247e-16      4958.86      71.5300
       4770.8258  5.43439e-14  7.80679e-16      4987.78      71.6521
       4772.3028  5.44643e-14  7.82425e-16      5004.59      71.8951
       4773.7797  5.48414e-14  7.84599e-16      5045.06      72.1780
       4775.2567  5.48373e-14  7.83991e-16      5050.50      72.2052
       4776.7337  5.44635e-14  7.81082e-16      5021.85      72.0203
       4778.2107  5.38601e-14  7.75725e-16      4971.95      71.6088
       4779.6877  5.33481e-14  7.71892e-16      4930.36      71.3371
       4781.1646  5.40017e-14  7.75473e-16      4996.51      71.7508
       4782.6416  5.38074e-14  7.73259e-16      4984.28      71.6284
       4784.1186  5.33935e-14  7.69672e-16      4951.65      71.3784
       4785.5956  5.30299e-14  7.67922e-16      4923.61      71.2984
       4787.0726  5.30007e-14  7.67074e-16      4926.59      71.3020
       4788.5495  5.26701e-14  7.64073e-16      4901.53      71.1054
       4790.0265  5.14509e-14  7.54976e-16      4793.61      70.3402
       4791.5035  5.11075e-14  7.52442e-16      4767.14      70.1853
       4792.9805  5.46928e-14  7.75680e-16      5107.48      72.4366
       4794.4575  5.88329e-14  8.05213e-16      5500.46      75.2817
       4795.9344  6.08241e-14  8.17707e-16      5693.02      76.5359
       4797.4114  6.13443e-14  8.20193e-16      5746.78      76.8364
       4798.8884  6.34934e-14  8.34525e-16      5952.71      78.2394
       4800.3654  6.61775e-14  8.51616e-16      6209.11      79.9028
       4801.8424  6.77239e-14  8.60215e-16      6358.98      80.7705
       4803.3193  6.81289e-14  8.61164e-16      6401.83      80.9205
       4804.7963  6.72373e-14  8.56341e-16      6322.81      80.5280
       4806.2733  6.61479e-14  8.50169e-16      6225.06      80.0079
       4807.7503  6.44290e-14  8.38719e-16      6067.87      78.9899
       4809.2273  6.53572e-14  8.44113e-16      6159.93      79.5579
       4810.7042  6.91201e-14  8.67039e-16      6519.50      81.7803
       4812.1812  7.40843e-14  8.96159e-16      6993.02      84.5909
       4813.6582  7.56282e-14  9.05673e-16      7144.14      85.5535
       4815.1352  7.40051e-14  8.95685e-16      6996.10      84.6740
       4816.6122  7.14519e-14  8.80603e-16      6759.85      83.3111
       4818.0891  6.90182e-14  8.65041e-16      6534.54      81.9007
       4819.5661  6.66307e-14  8.49672e-16      6313.27      80.5065
       4821.0431  6.56804e-14  8.43352e-16      6227.94      79.9682
       4822.5201  6.72133e-14  8.52344e-16      6378.12      80.8821
       4823.9971  7.05425e-14  8.72614e-16      6699.11      82.8684
       4825.4740  7.65033e-14  9.07747e-16      7270.69      86.2701
       4826.9510  8.27406e-14  9.43028e-16      7869.43      89.6910
       4828.4280  8.79806e-14  9.71692e-16      8374.15      92.4874
       4829.9050  9.23391e-14  9.94831e-16      8795.67      94.7616
       4831.3820  9.54969e-14  1.01080e-15      9103.37      96.3555
       4832.8589  9.60508e-14  1.01369e-15      9163.12      96.7044
       4834.3359  9.51869e-14  1.00890e-15      9087.60      96.3208
       4835.8129  9.50519e-14  1.00780e-15      9081.61      96.2886
       4837.2899  9.25451e-14  9.94061e-16      8849.06      95.0510
       4838.7669  8.87399e-14  9.73521e-16      8491.88      93.1602
       4840.2438  8.57561e-14  9.56967e-16      8213.12      91.6516
       4841.7208  8.49061e-14  9.52361e-16      8138.42      91.2858
       4843.1978  9.24539e-14  9.91331e-16      8869.20      95.0995
       4844.6748  1.12642e-13  1.09052e-15      10814.8      104.701
       4846.1518  1.47513e-13  1.24435e-15      14174.7      119.571
       4847.6287  1.96240e-13  1.43244e-15      18873.0      137.762
       4849.1057  2.48101e-13  1.61033e-15      23881.1      155.003
       4850.5827  2.86913e-13  1.73173e-15      27640.8      166.833
       4852.0597  3.08457e-13  1.79480e-15      29742.5      173.061
       4853.5367  3.14167e-13  1.81067e-15      30319.6      174.744
       4855.0137  3.11248e-13  1.80134e-15      30064.3      173.996
       4856.4906  3.07340e-13  1.78907e-15      29712.9      172.964
       4857.9676  2.98019e-13  1.76112e-15      28836.1      170.404
       4859.4446  2.84383e-13  1.72004e-15      27538.1      166.559
       4860.9216  2.71137e-13  1.67926e-15      26275.8      162.736
       4862.3986  2.62981e-13  1.65372e-15      25504.8      160.383
       4863.8755  2.64836e-13  1.65836e-15      25704.2      160.956
       4865.3525  2.74530e-13  1.68729e-15      26665.4      163.889
       4866.8295  2.90785e-13  1.73554e-15      28265.8      168.704
       4868.3065  3.11430e-13  1.79466e-15      30295.0      174.579
       4869.7835  3.25236e-13  1.83366e-15      31660.2      178.498
       4871.2604  3.21806e-13  1.82346e-15      31347.2      177.624
       4872.7374  3.04315e-13  1.77272e-15      29663.1      172.797
       4874.2144  2.79518e-13  1.69841e-15      27264.2      165.663
       4875.6914  2.49387e-13  1.60398e-15      24341.5      156.557
       4877.1684  2.20645e-13  1.50944e-15      21550.1      147.425
       4878.6453  1.93970e-13  1.41506e-15      18956.9      138.296
       4880.1223  1.67667e-13  1.31622e-15      16396.8      128.719
       4881.5993  1.45828e-13  1.22757e-15      14270.1      120.125
       4883.0763  1.26768e-13  1.14516e-15      12412.5      112.129
       4884.5533  1.11611e-13  1.07613e-15      10935.2      105.435
       4886.0302  1.01974e-13  1.02986e-15      9997.14      100.964
       4887.5072  9.95996e-14  1.01700e-15      9770.36      99.7640
       4888.9842  9.91730e-14  1.01443e-15      9734.84      99.5770
       4890.4612  9.83066e-14  1.00935e-15      9656.72      99.1491
       4891.9382  9.71419e-14  1.00194e-15      9549.18      98.4921
       4893.4151  9.29451e-14  9.81822e-16      9143.35      96.5854
       4894.8921  8.92153e-14  9.62350e-16      8782.89      94.7394
       4896.3691  8.58001e-14  9.44228e-16      8452.88      93.0238
       4897.8461  8.44510e-14  9.36441e-16      8326.08      92.3244
       4899.3231  8.55212e-14  9.41776e-16      8437.80      92.9188
       4900.8000  8.38605e-14  9.32249e-16      8280.32      92.0495
       4902.2770  8.22596e-14  9.22929e-16      8128.49      91.1993
       4903.7540  7.94122e-14  9.06646e-16      7853.16      89.6591
       4905.2310  8.03423e-14  9.11007e-16      7950.78      90.1545
       4906.7080  8.62034e-14  9.42391e-16      8536.50      93.3226
       4908.1849  9.91427e-14  1.00885e-15      9824.02      99.9665
       4909.6619  1.19672e-13  1.10584e-15      11865.3      109.642
       4911.1389  1.43158e-13  1.20829e-15      14201.9      119.867
       4912.6159  1.62875e-13  1.28772e-15      16166.4      127.814
       4914.0929  1.73850e-13  1.32993e-15      17263.8      132.066
       4915.5698  1.79398e-13  1.35132e-15      17821.0      134.238
       4917.0468  1.84279e-13  1.36861e-15      18311.5      135.996
       4918.5238  1.88511e-13  1.38411e-15      18737.2      137.575
       4920.0008  1.91581e-13  1.39532e-15      19046.0      138.716
       4921.4778  1.90743e-13  1.39204e-15      18963.8      138.398
       4922.9547  1.89923e-13  1.38922e-15      18882.5      138.119
       4924.4317  1.89450e-13  1.38726e-15      18835.1      137.921
       4925.9087  1.89272e-13  1.38709e-15      18816.3      137.897
       4927.3857  1.87945e-13  1.38256e-15      18682.7      137.433
       4928.8627  1.88418e-13  1.38405e-15      18727.8      137.568
       4930.3396  1.91632e-13  1.39489e-15      19045.1      138.629
       4931.8166  1.92752e-13  1.39983e-15      19153.9      139.103
       4933.2936  1.91625e-13  1.39563e-15      19038.8      138.662
       4934.7706  1.79044e-13  1.34918e-15      17785.6      134.023
       4936.2476  1.64390e-13  1.29362e-15      16328.0      128.488
       4937.7246  1.48599e-13  1.23075e-15      14758.3      122.233
       4939.2015  1.32924e-13  1.16446e-15      13200.1      115.638
       4940.6785  1.21983e-13  1.11719e-15      12112.5      110.933
       4942.1555  1.13207e-13  1.07620e-15      11238.8      106.841
       4943.6325  1.05564e-13  1.04004e-15      10478.0      103.232
       4945.1095  9.94549e-14  1.01025e-15      9870.02      100.258
       4946.5864  9.39114e-14  9.81592e-16      9319.31      97.4085
       4948.0634  8.88857e-14  9.56114e-16      8820.49      94.8791
       4949.5404  8.51540e-14  9.37090e-16      8450.35      92.9931
       4951.0174  8.11271e-14  9.14811e-16      8051.29      90.7885
       4952.4944  7.82484e-14  8.98117e-16      7767.20      89.1502
       4953.9713  7.64952e-14  8.87572e-16      7594.99      88.1245
       4955.4483  7.17932e-14  8.61477e-16      7130.06      85.5565
       4956.9253  6.89476e-14  8.44089e-16      6849.53      83.8552
       4958.4023  6.54125e-14  8.20252e-16      6500.58      81.5152
       4959.8793  6.15957e-14  7.97583e-16      6123.26      79.2881
       4961.3562  5.89323e-14  7.79640e-16      5859.37      77.5161
       4962.8332  5.48393e-14  7.52739e-16      5453.27      74.8531
       4964.3102  5.14277e-14  7.31608e-16      5114.82      72.7632
       4965.7872  4.75378e-14  7.04420e-16      4728.66      70.0698
       4967.2642  4.45075e-14  6.82599e-16      4427.83      67.9084
       4968.7411  4.18125e-14  6.61171e-16      4160.17      65.7839
       4970.2181  4.15799e-14  6.60287e-16      4137.68      65.7061
       4971.6951  4.13702e-14  6.58305e-16      4117.59      65.5214
       4973.1721  4.05093e-14  6.48762e-16      4033.15      64.5913
       4974.6491  3.94315e-14  6.42778e-16      3927.13      64.0166
       4976.1260  3.82224e-14  6.32760e-16      3808.15      63.0427
       4977.6030  3.87491e-14  6.37212e-16      3862.08      63.5102
       4979.0800  4.42687e-14  6.79402e-16      4413.77      67.7392
       4980.5570  5.45045e-14  7.50387e-16      5435.49      74.8327
       4982.0340  6.61510e-14  8.24545e-16      6597.54      82.2357
       4983.5109  7.54163e-14  8.78733e-16      7522.05      87.6451
       4984.9879  8.53142e-14  9.35040e-16      8509.83      93.2673
       4986.4649  9.15922e-14  9.67535e-16      9136.54      96.5139
       4987.9419  9.71510e-14  9.96707e-16      9691.51      99.4287
       4989.4189  1.00942e-13  1.01477e-15      10070.0      101.233
       4990.8958  1.02173e-13  1.02142e-15      10192.6      101.895
       4992.3728  9.91689e-14  1.00660e-15      9894.26      100.430
       4993.8498  9.69393e-14  9.95631e-16      9673.14      99.3495
       4995.3268  9.13111e-14  9.66320e-16      9113.08      96.4412
       4996.8038  8.39474e-14  9.28075e-16      8379.72      92.6415
       4998.2807  8.01496e-14  9.05558e-16      8002.16      90.4111
       4999.7577  8.06221e-14  9.08534e-16      8050.79      90.7247
       5001.2347  9.01087e-14  9.59310e-16      8998.89      95.8034
       5002.7117  1.11465e-13  1.06471e-15      11132.4      106.336
       5004.1887  1.40920e-13  1.19587e-15      14075.0      119.443
       5005.6656  1.71853e-13  1.31896e-15      17165.0      131.740
       5007.1426  1.96098e-13  1.40693e-15      19585.2      140.517
       5008.6196  2.07949e-13  1.45004e-15      20765.7      144.800
       5010.0966  2.11419e-13  1.46239e-15      21107.3      145.999
       5011.5736  2.17828e-13  1.48374e-15      21742.6      148.101
       5013.0505  2.23025e-13  1.50060e-15      22257.4      149.756
       5014.5275  2.25360e-13  1.50977e-15      22484.2      150.630
       5016.0045  2.27592e-13  1.51744e-15      22699.8      151.348
       5017.4815  2.28499e-13  1.52058e-15      22782.5      151.610
       5018.9585  2.29961e-13  1.52525e-15      22920.4      152.023
       5020.4355  2.33880e-13  1.53881e-15      23302.8      153.320
       5021.9124  2.35257e-13  1.54334e-15      23432.2      153.721
       5023.3894  2.38223e-13  1.55338e-15      23719.4      154.666
       5024.8664  2.41384e-13  1.56322e-15      24025.8      155.593
       5026.3434  2.45795e-13  1.57829e-15      24456.5      157.039
       5027.8204  2.41445e-13  1.56417e-15      24014.9      155.577
       5029.2973  2.33958e-13  1.54083e-15      23258.5      153.179
       5030.7743  2.15988e-13  1.48105e-15      21460.1      147.153
       5032.2513  2.00915e-13  1.42999e-15      19950.4      141.995
       5033.7283  1.84690e-13  1.37125e-15      18327.7      136.075
       5035.2053  1.68177e-13  1.30999e-15      16677.8      129.909
       5036.6822  1.57799e-13  1.26908e-15      15637.7      125.764
       5038.1592  1.49151e-13  1.23494e-15      14770.6      122.297
       5039.6362  1.43477e-13  1.21193e-15      14199.1      119.938
       5041.1132  1.38391e-13  1.19081e-15      13687.6      117.777
       5042.5902  1.33891e-13  1.17169e-15      13236.2      115.831
       5044.0671  1.30351e-13  1.15710e-15      12881.0      114.342
       5045.5441  1.26235e-13  1.13880e-15      12470.9      112.504
       5047.0211  1.24771e-13  1.13252e-15      12323.4      111.856
       5048.4981  1.21477e-13  1.11769e-15      11993.6      110.351
       5049.9751  1.16294e-13  1.09344e-15      11475.0      107.892
       5051.4520  1.12986e-13  1.07943e-15      11139.3      106.421
       5052.9290  1.08719e-13  1.05989e-15      10707.7      104.388
       5054.4060  1.01785e-13  1.02662e-15      10013.2      100.996
       5055.8830  9.75934e-14  1.00624e-15      9588.98      98.8671
       5057.3600  9.41157e-14  9.89312e-16      9235.62      97.0817
       5058.8369  9.23853e-14  9.80915e-16      9054.60      96.1386
       5060.3139  9.19936e-14  9.77984e-16      9005.77      95.7404
       5061.7909  9.30610e-14  9.84225e-16      9099.26      96.2349
       5063.2679  9.34331e-14  9.87449e-16      9122.71      96.4135
       5064.7449  9.19493e-14  9.81098e-16      8963.73      95.6429
       5066.2218  9.08435e-14  9.76697e-16      8842.45      95.0690
       5067.6988  9.00323e-14  9.72686e-16      8750.67      94.5400
       5069.1758  8.85430e-14  9.65227e-16      8594.00      93.6852
       5070.6528  8.76626e-14  9.60633e-16      8497.41      93.1171
       5072.1298  8.60907e-14  9.53111e-16      8334.27      92.2687
       5073.6067  8.58782e-14  9.53470e-16      8302.96      92.1842
       5075.0837  8.41168e-14  9.43872e-16      8122.65      91.1439
       5076.5607  8.42540e-14  9.44588e-16      8125.85      91.1004
       5078.0377  8.29076e-14  9.37561e-16      7986.18      90.3117
       5079.5147  8.06706e-14  9.25645e-16      7762.52      89.0701
       5080.9916  7.90857e-14  9.17112e-16      7603.83      88.1774
       5082.4686  7.63265e-14  9.02164e-16      7334.47      86.6920
       5083.9456  7.48850e-14  8.93598e-16      7193.69      85.8419
       5085.4226  7.42627e-14  8.90176e-16      7133.00      85.5023
       5086.8996  7.40098e-14  8.88211e-16      7108.51      85.3111
       5088.3765  7.52765e-14  8.95847e-16      7230.11      86.0438
       5089.8535  7.66298e-14  9.04550e-16      7359.88      86.8772
       5091.3305  7.63106e-14  9.02434e-16      7329.26      86.6744
       5092.8075  7.61711e-14  8.99762e-16      7317.12      86.4327
       5094.2845  7.60434e-14  8.98908e-16      7308.01      86.3879
       5095.7614  7.57733e-14  8.98172e-16      7285.56      86.3588
       5097.2384  7.58552e-14  8.98382e-16      7294.84      86.3956
       5098.7154  7.52513e-14  8.95379e-16      7236.05      86.0982
       5100.1924  7.43205e-14  8.90239e-16      7144.18      85.5757
       5101.6694  7.41130e-14  8.87774e-16      7120.27      85.2912
       5103.1464  7.39732e-14  8.88086e-16      7101.92      85.2622
       5104.6233  7.29459e-14  8.82863e-16      6998.45      84.7020
       5106.1003  7.27424e-14  8.82046e-16      6974.07      84.5649
       5107.5773  7.25077e-14  8.81255e-16      6946.73      84.4303
       5109.0543  7.13049e-14  8.73201e-16      6826.73      83.6004
       5110.5313  7.08076e-14  8.70688e-16      6774.39      83.3015
       5112.0082  7.05711e-14  8.70803e-16      6747.04      83.2541
       5113.4852  7.19060e-14  8.78890e-16      6869.84      83.9683
       5114.9622  7.66300e-14  9.06833e-16      7316.01      86.5771
       5116.4392  8.31422e-14  9.44376e-16      7932.15      90.0978
       5117.9162  8.88691e-14  9.76082e-16      8472.53      93.0569
       5119.3931  9.16326e-14  9.91796e-16      8729.80      94.4881
       5120.8701  9.24712e-14  9.96852e-16      8803.62      94.9041
       5122.3471  9.35285e-14  1.00272e-15      8898.38      95.3997
       5123.8241  9.34677e-14  1.00204e-15      8886.70      95.2721
       5125.3011  9.00784e-14  9.83798e-16      8558.76      93.4752
       5126.7780  8.77045e-14  9.72087e-16      8328.94      92.3152
       5128.2550  9.17307e-14  9.93745e-16      8709.43      94.3518
       5129.7320  1.01032e-13  1.04149e-15      9593.33      98.8931
       5131.2090  1.12662e-13  1.09818e-15      10701.1      104.310
       5132.6860  1.23537e-13  1.14849e-15      11740.1      109.145
       5134.1629  1.30731e-13  1.18099e-15      12431.9      112.306
       5135.6399  1.35066e-13  1.19991e-15      12852.4      114.180
       5137.1169  1.38038e-13  1.21286e-15      13143.8      115.487
       5138.5939  1.35001e-13  1.19892e-15      12863.0      114.234
       5140.0709  1.31851e-13  1.18502e-15      12571.0      112.983
       5141.5478  1.29899e-13  1.17614e-15      12393.0      112.209
       5143.0248  1.26385e-13  1.15982e-15      12065.6      110.724
       5144.5018  1.19682e-13  1.12847e-15      11433.1      107.802
       5145.9788  1.10157e-13  1.08296e-15      10530.0      103.521
       5147.4558  1.02522e-13  1.04536e-15      9806.60      99.9926
       5148.9327  1.00629e-13  1.03533e-15      9631.85      99.0975
       5150.4097  1.05123e-13  1.05652e-15      10068.5      101.192
       5151.8867  1.19893e-13  1.12587e-15      11491.2      107.909
       5153.3637  1.45821e-13  1.23958e-15      13997.0      118.984
       5154.8407  1.77192e-13  1.36405e-15      17043.8      131.206
       5156.3176  2.08192e-13  1.47657e-15      20077.2      142.395
       5157.7946  2.32856e-13  1.55833e-15      22519.9      150.708
       5159.2716  2.51220e-13  1.61621e-15      24366.5      156.761
       5160.7486  2.64430e-13  1.65599e-15      25723.1      161.091
       5162.2256  2.72489e-13  1.67797e-15      26586.1      163.716
       5163.7025  2.76700e-13  1.68758e-15      27077.3      165.143
       5165.1795  2.74582e-13  1.67873e-15      26949.8      164.765
       5166.6565  2.69355e-13  1.66038e-15      26515.3      163.447
       5168.1335  2.63963e-13  1.64112e-15      26061.3      162.029
       5169.6105  2.58918e-13  1.62263e-15      25638.7      160.677
       5171.0874  2.53634e-13  1.60478e-15      25188.3      159.371
       5172.5644  2.54587e-13  1.60526e-15      25355.3      159.874
       5174.0414  2.54631e-13  1.60245e-15      25431.0      160.043
       5175.5184  2.60785e-13  1.61984e-15      26118.5      162.232
       5176.9954  2.68521e-13  1.64127e-15      26964.1      164.812
       5178.4723  2.70645e-13  1.64618e-15      27245.0      165.716
       5179.9493  2.71095e-13  1.64566e-15      27356.3      166.064
       5181.4263  2.66923e-13  1.63107e-15      27000.3      164.989
       5182.9033  2.63821e-13  1.61914e-15      26747.8      164.159
       5184.3803  2.69407e-13  1.63536e-15      27356.2      166.059
       5185.8573  2.71683e-13  1.64119e-15      27613.7      166.810
       5187.3342  2.68877e-13  1.63225e-15      27342.1      165.984
       5188.8112  2.66097e-13  1.62372e-15      27065.3      165.152
       5190.2882  2.56350e-13  1.59406e-15      26077.9      162.159
       5191.7652  2.46621e-13  1.56319e-15      25090.1      159.031
       5193.2422  2.45793e-13  1.56076e-15      25006.2      158.787
       5194.7191  2.39685e-13  1.54077e-15      24384.0      156.749
       5196.1961  2.36485e-13  1.53162e-15      24055.7      155.799
       5197.6731  2.32716e-13  1.51905e-15      23669.6      154.503
       5199.1501  2.27326e-13  1.50261e-15      23118.7      152.814
       5200.6271  2.21129e-13  1.48211e-15      22485.5      150.708
       5202.1040  2.15216e-13  1.46247e-15      21877.2      148.663
       5203.5810  2.07514e-13  1.43676e-15      21081.3      145.960
       5205.0580  1.96132e-13  1.39729e-15      19909.6      141.841
       5206.5350  1.86105e-13  1.36238e-15      18877.1      138.190
       5208.0120  1.68699e-13  1.29842e-15      17101.0      131.621
       5209.4889  1.50017e-13  1.22482e-15      15200.0      124.101
       5210.9659  1.34588e-13  1.16173e-15      13631.0      117.660
       5212.4429  1.24064e-13  1.11603e-15      12560.1      112.985
       5213.9199  1.23385e-13  1.11293e-15      12486.2      112.626
       5215.3969  1.24567e-13  1.11878e-15      12600.7      113.171
       5216.8738  1.27319e-13  1.13152e-15      12873.8      114.412
       5218.3508  1.34008e-13  1.15984e-15      13544.5      117.228
       5219.8278  1.46174e-13  1.21123e-15      14768.1      122.371
       5221.3048  1.62319e-13  1.27600e-15      16392.6      128.863
       5222.7818  1.76782e-13  1.33169e-15      17846.9      134.440
       5224.2587  1.87489e-13  1.37039e-15      18921.3      138.299
       5225.7357  1.93345e-13  1.39172e-15      19506.5      140.411
       5227.2127  1.93017e-13  1.39022e-15      19469.3      140.229
       5228.6897  1.97249e-13  1.40603e-15      19891.9      141.794
       5230.1667  2.00482e-13  1.41754e-15      20213.7      142.924
       5231.6436  2.00832e-13  1.41879e-15      20244.5      143.019
       5233.1206  1.97881e-13  1.40876e-15      19945.5      141.996
       5234.5976  1.99338e-13  1.41373e-15      20097.3      142.533
       5236.0746  2.03180e-13  1.42641e-15      20494.0      143.876
       5237.5516  2.02123e-13  1.42176e-15      20396.8      143.474
       5239.0285  2.04152e-13  1.43002e-15      20611.1      144.374
       5240.5055  2.05003e-13  1.43208e-15      20706.9      144.651
       5241.9825  2.04238e-13  1.42956e-15      20639.5      144.466
       5243.4595  2.03506e-13  1.42636e-15      20575.4      144.211
       5244.9365  1.99215e-13  1.41076e-15      20151.4      142.705
       5246.4134  1.89577e-13  1.37573e-15      19185.9      139.229
       5247.8904  1.77675e-13  1.33235e-15      17990.1      134.905
       5249.3674  1.68896e-13  1.29919e-15      17109.5      131.610
       5250.8444  1.63216e-13  1.27727e-15      16541.0      129.444
       5252.3214  1.61924e-13  1.27230e-15      16414.8      128.977
       5253.7983  1.57392e-13  1.25467e-15      15958.9      127.218
       5255.2753  1.55156e-13  1.24541e-15      15735.4      126.305
       5256.7523  1.57165e-13  1.25371e-15      15942.3      127.172
       5258.2293  1.62352e-13  1.27231e-15      16471.2      129.081
       5259.7063  1.72120e-13  1.30990e-15      17463.6      132.905
       5261.1833  1.85340e-13  1.35901e-15      18804.9      137.887
       5262.6602  2.02281e-13  1.41932e-15      20522.8      144.000
       5264.1372  2.16552e-13  1.46782e-15      21969.7      148.913
       5265.6142  2.23064e-13  1.48938e-15      22629.6      151.096
       5267.0912  2.25423e-13  1.49765e-15      22867.9      151.928
       5268.5682  2.33634e-13  1.52425e-15      23699.6      154.618
       5270.0451  2.40188e-13  1.54520e-15      24361.8      156.727
       5271.5221  2.47878e-13  1.56959e-15      25136.9      159.170
       5272.9991  2.50025e-13  1.57662e-15      25349.6      159.851
       5274.4761  2.49685e-13  1.57630e-15      25310.0      159.785
       5275.9531  2.51743e-13  1.58300e-15      25512.6      160.427
       5277.4300  2.52351e-13  1.58501e-15      25567.4      160.588
       5278.9070  2.54379e-13  1.59174e-15      25762.5      161.205
       5280.3840  2.56303e-13  1.59811e-15      25942.6      161.758
       5281.8610  2.56341e-13  1.59857e-15      25926.8      161.682
       5283.3380  2.52185e-13  1.58675e-15      25481.8      160.331
       5284.8149  2.44986e-13  1.56518e-15      24729.8      157.996
       5286.2919  2.29825e-13  1.51681e-15      23176.4      152.961
       5287.7689  2.10760e-13  1.45367e-15      21231.1      146.437
       5289.2459  1.91838e-13  1.38836e-15      19304.8      139.712
       5290.7229  1.75710e-13  1.32919e-15      17664.8      133.629
       5292.1998  1.66224e-13  1.29414e-15      16696.7      129.992
       5293.6768  1.57736e-13  1.26195e-15      15831.0      126.654
       5295.1538  1.50816e-13  1.23502e-15      15124.3      123.852
       5296.6308  1.47755e-13  1.22362e-15      14805.6      122.611
       5298.1078  1.50660e-13  1.23580e-15      15084.7      123.733
       5299.5847  1.61744e-13  1.27971e-15      16181.8      128.030
       5301.0617  1.82337e-13  1.35796e-15      18226.4      135.742
       5302.5387  2.08204e-13  1.45089e-15      20792.6      144.896
       5304.0157  2.32835e-13  1.53428e-15      23230.7      153.080
       5305.4927  2.49066e-13  1.58757e-15      24823.1      158.225
       5306.9696  2.56413e-13  1.61194e-15      25525.5      160.467
       5308.4466  2.60966e-13  1.62709e-15      25939.8      161.732
       5309.9236  2.63364e-13  1.63545e-15      26141.9      162.337
       5311.4006  2.68348e-13  1.65221e-15      26603.1      163.794
       5312.8776  2.75113e-13  1.67373e-15      27244.0      165.747
       5314.3545  2.75972e-13  1.67712e-15      27304.5      165.933
       5315.8315  2.74379e-13  1.67267e-15      27124.4      165.356
       5317.3085  2.71846e-13  1.66546e-15      26852.0      164.509
       5318.7855  2.30443e-13  1.53117e-15      22745.5      151.132
       5320.2625  1.93157e-13  1.40931e-15      19051.1      139.000
       5321.7394  1.92375e-13  1.40680e-15      18959.9      138.650
       5323.2164  1.91588e-13  1.40423e-15      18868.3      138.294
       5324.6934  2.29120e-13  1.52849e-15      22547.8      150.419
       5326.1704  2.68389e-13  1.65883e-15      26392.7      163.125
       5327.6474  2.61998e-13  1.63941e-15      25742.4      161.079
       5329.1243  2.47936e-13  1.59573e-15      24337.2      156.635
       5330.6013  2.32382e-13  1.54638e-15      22787.0      151.635
       5332.0783  2.19782e-13  1.50517e-15      21529.2      147.442
       5333.5553  2.08204e-13  1.46610e-15      20374.1      143.467
       5335.0323  1.98606e-13  1.43330e-15      19414.8      140.113
       5336.5092  1.91535e-13  1.40830e-15      18707.1      137.548
       5337.9862  1.83985e-13  1.38089e-15      17955.8      134.766
       5339.4632  1.76872e-13  1.35479e-15      17254.6      132.166
       5340.9402  1.70051e-13  1.32892e-15      16582.8      129.592
       5342.4172  1.63757e-13  1.30456e-15      15963.8      127.175
       5343.8942  1.60702e-13  1.29284e-15      15661.2      125.994
       5345.3711  1.60210e-13  1.29104e-15      15608.9      125.783
       5346.8481  1.62841e-13  1.30105e-15      15860.9      126.725
       5348.3251  1.67928e-13  1.32097e-15      16352.1      128.631
       5349.8021  1.75581e-13  1.35110e-15      17093.1      131.531
       5351.2791  1.82177e-13  1.37620e-15      17730.7      133.941
       5352.7560  1.84592e-13  1.38517e-15      17961.2      134.781
       5354.2330  1.81897e-13  1.37593e-15      17693.8      133.842
       5355.7100  1.78341e-13  1.36287e-15      17341.8      132.525
       5357.1870  1.79561e-13  1.36751e-15      17452.9      132.919
       5358.6640  1.79084e-13  1.36632e-15      17400.3      132.755
       5360.1409  1.76267e-13  1.35585e-15      17122.6      131.707
       5361.6179  1.73618e-13  1.34532e-15      16862.3      130.661
       5363.0949  1.67022e-13  1.31958e-15      16218.8      128.139
       5364.5719  1.64249e-13  1.30901e-15      15946.7      127.090
       5366.0489  1.65645e-13  1.31425e-15      16077.0      127.557
       5367.5258  1.66494e-13  1.31814e-15      16151.1      127.869
       5369.0028  1.66280e-13  1.31785e-15      16119.8      127.757
       5370.4798  1.65729e-13  1.31622e-15      16055.1      127.509
       5371.9568  1.62370e-13  1.30395e-15      15718.6      126.232
       5373.4338  1.57615e-13  1.28475e-15      15247.2      124.283
       5374.9107  1.46744e-13  1.24087e-15      14183.9      119.939
       5376.3877  1.35994e-13  1.19598e-15      13131.0      115.478
       5377.8647  1.27098e-13  1.15778e-15      12257.1      111.654
       5379.3417  1.21822e-13  1.13370e-15      11733.7      109.196
       5380.8187  1.17646e-13  1.11385e-15      11316.5      107.142
       5382.2956  1.13586e-13  1.09628e-15      10911.5      105.312
       5383.7726  1.12412e-13  1.09217e-15      10784.3      104.777
       5385.2496  1.11425e-13  1.08751e-15      10674.6      104.184
       5386.7266  1.09157e-13  1.07798e-15      10442.2      103.123
       5388.2036  1.07043e-13  1.06894e-15      10226.1      102.119
       5389.6805  1.05423e-13  1.06145e-15      10057.9      101.268
       5391.1575  1.03794e-13  1.05417e-15      9889.30      100.439
       5392.6345  1.03514e-13  1.05346e-15      9849.43      100.237
       5394.1115  1.04814e-13  1.06044e-15      9959.72      100.767
       5395.5885  1.07291e-13  1.07409e-15      10181.4      101.926
       5397.0654  1.08074e-13  1.07714e-15      10243.5      102.094
       5398.5424  1.10261e-13  1.08823e-15      10440.4      103.042
       5400.0194  1.13791e-13  1.10570e-15      10765.5      104.608
       5401.4964  1.16646e-13  1.11947e-15      11026.6      105.825
       5402.9734  1.18839e-13  1.13172e-15      11224.9      106.896
       5404.4503  1.19259e-13  1.13391e-15      11255.6      107.019
       5405.9273  1.20873e-13  1.14237e-15      11379.3      107.546
       5407.4043  1.24549e-13  1.15965e-15      11725.8      109.176
       5408.8813  1.28837e-13  1.17986e-15      12129.9      111.083
       5410.3583  1.32785e-13  1.19754e-15      12502.0      112.750
       5411.8352  1.37160e-13  1.21700e-15      12914.3      114.586
       5413.3122  1.43618e-13  1.24654e-15      13522.9      117.372
       5414.7892  1.55972e-13  1.29921e-15      14686.5      122.335
       5416.2662  1.86702e-13  1.42067e-15      17580.7      133.777
       5417.7432  4.13730e-13  2.11391e-15      38960.1      199.063
       5419.2201      0.00000  6.37138e-17      0.00000      6.00000
