# N Sco 2012
# 2012-07-15T 0:56:35.2
# 
#     Wavelength       Flux    Uncertainty       Counts  Uncertainty
# 
       5620.7996  2.80182e-14  1.27723e-15      533.471      24.3186
       5621.9002  2.63366e-14  1.25833e-15      501.658      23.9685
       5623.0008  2.64019e-14  1.22364e-15      503.107      23.3173
       5624.1014  2.82846e-14  1.28352e-15      539.205      24.4685
       5625.2020  2.84413e-14  1.29051e-15      542.416      24.6119
       5626.3026  2.90318e-14  1.30422e-15      553.903      24.8836
       5627.4032  3.46457e-14  1.48753e-15      588.729      25.2774
       5628.5038  3.67716e-14  1.56827e-15      596.971      25.4602
       5629.6044  3.58908e-14  1.54258e-15      582.912      25.0535
       5630.7050  3.19712e-14  1.52647e-15      519.466      24.8021
       5631.8056  3.63189e-14  1.49871e-15      621.393      25.6420
       5632.9062  3.70899e-14  1.51262e-15      629.786      25.6843
       5634.0068  3.82919e-14  1.58800e-15      645.238      26.7585
       5635.1074  4.24592e-14  1.65866e-15      709.956      27.7342
       5636.2080  4.37772e-14  1.68711e-15      726.318      27.9912
       5637.3086  3.76588e-14  1.62169e-15      619.918      26.6953
       5638.4092  4.59662e-14  1.72556e-15      750.698      28.1810
       5639.5098  4.98697e-14  1.80450e-15      812.959      29.4164
       5640.6104  5.16397e-14  1.85333e-15      842.162      30.2248
       5641.7110  5.41280e-14  1.89975e-15      883.107      30.9948
       5642.8116  5.35391e-14  1.87639e-15      873.862      30.6263
       5643.9122  5.96554e-14  1.96331e-15      974.094      32.0583
       5645.0128  6.53032e-14  2.03984e-15      1066.76      33.3218
       5646.1134  6.80971e-14  2.08877e-15      1112.86      34.1352
       5647.2140  6.91959e-14  2.10854e-15      1131.29      34.4727
       5648.3146  6.92519e-14  2.11131e-15      1132.67      34.5323
       5649.4152  6.64973e-14  2.06449e-15      1088.07      33.7806
       5650.5158  6.60059e-14  2.06046e-15      1080.48      33.7286
       5651.6164  6.87287e-14  2.09815e-15      1125.73      34.3663
       5652.7170  6.89775e-14  2.09710e-15      1130.50      34.3702
       5653.8176  7.21530e-14  2.14031e-15      1183.35      35.1021
       5654.9181  7.49019e-14  2.17680e-15      1229.37      35.7279
       5656.0187  7.19742e-14  2.13545e-15      1182.43      35.0823
       5657.1193  6.90533e-14  2.11011e-15      1135.53      34.6992
       5658.2199  7.00090e-14  2.11031e-15      1152.36      34.7361
       5659.3205  6.91873e-14  2.11049e-15      1140.19      34.7804
       5660.4211  7.23654e-14  2.15091e-15      1194.09      35.4919
       5661.5217  7.46014e-14  2.16430e-15      1232.68      35.7619
       5662.6223  7.55820e-14  2.17062e-15      1250.79      35.9211
       5663.7229  7.62121e-14  2.17786e-15      1263.59      36.1087
       5664.8235  7.72732e-14  2.19159e-15      1283.65      36.4064
       5665.9241  7.77379e-14  2.19623e-15      1293.86      36.5539
       5667.0247  7.90500e-14  2.21748e-15      1318.24      36.9786
       5668.1253  7.68052e-14  2.19915e-15      1283.27      36.7436
       5669.2259  7.93363e-14  2.24489e-15      1328.11      37.5800
       5670.3265  8.40336e-14  2.29436e-15      1409.44      38.4818
       5671.4271  8.37888e-14  2.28017e-15      1408.03      38.3172
       5672.5277  8.63706e-14  2.30801e-15      1454.22      38.8601
       5673.6283  8.84537e-14  2.33119e-15      1492.22      39.3272
       5674.7289  8.81584e-14  2.33266e-15      1490.15      39.4290
       5675.8295  8.53877e-14  2.30075e-15      1446.17      38.9668
       5676.9301  8.48374e-14  2.29068e-15      1439.63      38.8711
       5678.0307  8.79880e-14  2.31886e-15      1496.46      39.4382
       5679.1313  8.80662e-14  2.30536e-15      1501.55      39.3070
       5680.2319  8.91737e-14  2.31870e-15      1524.28      39.6344
       5681.3325  8.99707e-14  2.33389e-15      1541.95      39.9989
       5682.4331  9.09426e-14  2.34035e-15      1562.36      40.2064
       5683.5337  8.91563e-14  2.30705e-15      1535.23      39.7263
       5684.6343  8.55415e-14  2.27818e-15      1476.26      39.3165
       5685.7349  8.56908e-14  2.26795e-15      1481.91      39.2212
       5686.8355  8.28145e-14  2.23070e-15      1434.65      38.6438
       5687.9361  8.20257e-14  2.22430e-15      1423.37      38.5977
       5689.0367  8.35031e-14  2.22845e-15      1451.43      38.7345
       5690.1373  8.39601e-14  2.23269e-15      1461.82      38.8733
       5691.2379  8.44236e-14  2.23734e-15      1472.36      39.0194
       5692.3385  8.43339e-14  2.23187e-15      1473.25      38.9891
       5693.4391  8.31608e-14  2.21954e-15      1455.19      38.8385
       5694.5397  7.78624e-14  2.15690e-15      1364.75      37.8056
       5695.6403  7.82151e-14  2.15383e-15      1373.20      37.8141
       5696.7409  7.74634e-14  2.14075e-15      1362.21      37.6454
       5697.8415  7.79706e-14  2.15795e-15      1373.11      38.0030
       5698.9421  7.89201e-14  2.16097e-15      1392.16      38.1198
       5700.0427  7.74228e-14  2.14014e-15      1368.17      37.8192
       5701.1433  7.47323e-14  2.13493e-15      1322.60      37.7838
       5702.2438  7.74182e-14  2.15804e-15      1371.66      38.2352
       5703.3444  8.00194e-14  2.17215e-15      1419.56      38.5344
       5704.4450  7.87013e-14  2.14590e-15      1398.07      38.1204
       5705.5456  7.97117e-14  2.16849e-15      1418.18      38.5802
       5706.6462  8.01893e-14  2.16130e-15      1428.84      38.5108
       5707.7468  8.20157e-14  2.18758e-15      1463.61      39.0384
       5708.8474  7.87423e-14  2.15001e-15      1407.33      38.4263
       5709.9480  8.38732e-14  2.19973e-15      1501.31      39.3747
       5711.0486  8.38743e-14  2.21620e-15      1503.61      39.7297
       5712.1492  8.20375e-14  2.18337e-15      1472.91      39.2006
       5713.2498  8.78904e-14  2.25075e-15      1580.39      40.4717
       5714.3504  8.97168e-14  2.26678e-15      1615.68      40.8217
       5715.4510  8.38618e-14  2.19442e-15      1512.53      39.5785
       5716.5516  8.35666e-14  2.20175e-15      1509.48      39.7707
       5717.6522  8.68053e-14  2.22606e-15      1570.36      40.2707
       5718.7528  8.61960e-14  2.23676e-15      1561.69      40.5254
       5719.8534  8.55018e-14  2.23036e-15      1551.45      40.4705
       5720.9540  8.85314e-14  2.24978e-15      1608.85      40.8845
       5722.0546  9.27758e-14  2.29858e-15      1688.09      41.8236
       5723.1552  9.46597e-14  2.32505e-15      1724.33      42.3534
       5724.2558  9.54117e-14  2.31856e-15      1739.79      42.2780
       5725.3564  9.53997e-14  2.32716e-15      1741.30      42.4770
       5726.4570  9.63259e-14  2.33120e-15      1759.90      42.5916
       5727.5576  1.01660e-13  2.40345e-15      1858.90      43.9479
       5728.6582  1.03283e-13  2.40574e-15      1890.02      44.0236
       5729.7588  1.05843e-13  2.43609e-15      1938.36      44.6133
       5730.8594  1.09843e-13  2.48502e-15      2013.15      45.5446
       5731.9600  1.11972e-13  2.50366e-15      2053.76      45.9215
       5733.0606  1.15986e-13  2.54895e-15      2129.02      46.7881
       5734.1612  1.21591e-13  2.61113e-15      2233.63      47.9664
       5735.2618  1.27008e-13  2.65866e-15      2334.93      48.8772
       5736.3624  1.22519e-13  2.61382e-15      2254.14      48.0898
       5737.4630  1.22941e-13  2.62597e-15      2263.64      48.3506
       5738.5636  1.22067e-13  2.60841e-15      2249.28      48.0643
       5739.6642  1.22247e-13  2.60716e-15      2254.33      48.0782
       5740.7648  1.19516e-13  2.58625e-15      2205.69      47.7295
       5741.8654  1.17223e-13  2.55749e-15      2165.04      47.2351
       5742.9660  1.17152e-13  2.54225e-15      2165.38      46.9899
       5744.0666  1.20297e-13  2.57663e-15      2225.24      47.6620
       5745.1672  1.16343e-13  2.54122e-15      2153.76      47.0434
       5746.2678  1.11676e-13  2.49772e-15      2069.98      46.2964
       5747.3684  1.16396e-13  2.52675e-15      2161.19      46.9154
       5748.4690  1.14010e-13  2.51532e-15      2120.51      46.7835
       5749.5695  1.14174e-13  2.49846e-15      2126.86      46.5421
       5750.6701  1.15420e-13  2.52190e-15      2153.38      47.0510
       5751.7707  1.17325e-13  2.54204e-15      2192.06      47.4945
       5752.8713  1.19664e-13  2.56384e-15      2239.07      47.9730
       5753.9719  1.15841e-13  2.51889e-15      2170.89      47.2049
       5755.0725  1.16994e-13  2.52969e-15      2195.94      47.4815
       5756.1731  1.14130e-13  2.49834e-15      2145.55      46.9666
       5757.2737  1.16468e-13  2.51748e-15      2192.92      47.4005
       5758.3743  1.18960e-13  2.53880e-15      2243.35      47.8768
       5759.4749  1.14280e-13  2.48477e-15      2158.52      46.9321
       5760.5755  1.13927e-13  2.48735e-15      2155.59      47.0625
       5761.6761  1.13212e-13  2.46874e-15      2145.79      46.7917
       5762.7767  1.12143e-13  2.46322e-15      2129.21      46.7682
       5763.8773  1.12780e-13  2.48279e-15      2145.03      47.2216
       5764.9779  1.09165e-13  2.43556e-15      2079.86      46.4035
       5766.0785  1.09374e-13  2.42683e-15      2087.46      46.3174
       5767.1791  1.09263e-13  2.41911e-15      2089.14      46.2539
       5768.2797  1.08133e-13  2.40426e-15      2071.27      46.0533
       5769.3803  1.03932e-13  2.37498e-15      1993.46      45.5531
       5770.4809  1.02522e-13  2.35166e-15      1968.14      45.1452
       5771.5815  9.88491e-14  2.30321e-15      1899.57      44.2605
       5772.6821  9.69255e-14  2.27635e-15      1864.60      43.7912
       5773.7827  9.31008e-14  2.23834e-15      1792.89      43.1049
       5774.8833  8.70742e-14  2.16072e-15      1678.84      41.6599
       5775.9839  8.67262e-14  2.16648e-15      1674.06      41.8193
       5777.0845  8.28297e-14  2.11483e-15      1600.61      40.8672
       5778.1851  7.92735e-14  2.05950e-15      1533.58      39.8418
       5779.2857  7.39342e-14  1.99263e-15      1431.89      38.5915
       5780.3863  6.85713e-14  1.91395e-15      1329.54      37.1098
       5781.4869  6.62917e-14  1.89282e-15      1286.86      36.7437
       5782.5875  6.66089e-14  1.89550e-15      1294.57      36.8397
       5783.6881  6.86492e-14  1.90918e-15      1335.61      37.1442
       5784.7887  6.99763e-14  1.92192e-15      1363.14      37.4391
       5785.8893  7.02802e-14  1.92802e-15      1371.07      37.6129
       5786.9899  6.87035e-14  1.91730e-15      1342.47      37.4643
       5788.0905  6.97078e-14  1.91798e-15      1364.41      37.5410
       5789.1911  6.64807e-14  1.88187e-15      1303.45      36.8969
       5790.2917  6.65359e-14  1.87829e-15      1306.66      36.8865
       5791.3923  6.40593e-14  1.85049e-15      1260.19      36.4032
       5792.4929  6.04345e-14  1.80859e-15      1191.19      35.6480
       5793.5935  6.26985e-14  1.82109e-15      1238.60      35.9753
       5794.6941  6.42359e-14  1.83426e-15      1272.00      36.3221
       5795.7947  6.22298e-14  1.81121e-15      1235.28      35.9532
       5796.8952  5.93064e-14  1.77188e-15      1180.12      35.2583
       5797.9958  6.23470e-14  1.80329e-15      1243.56      35.9681
       5799.0964  6.14095e-14  1.79195e-15      1227.92      35.8311
       5800.1970  6.01681e-14  1.77789e-15      1206.16      35.6406
       5801.2976  6.21793e-14  1.79923e-15      1249.65      36.1602
       5802.3982  6.15006e-14  1.78920e-15      1239.33      36.0552
       5803.4988  6.17908e-14  1.78737e-15      1248.54      36.1153
       5804.5994  6.20999e-14  1.79283e-15      1258.34      36.3285
       5805.7000  6.05583e-14  1.77008e-15      1230.56      35.9684
       5806.8006  5.92936e-14  1.75381e-15      1208.48      35.7450
       5807.9012  6.01505e-14  1.75699e-15      1229.37      35.9099
       5809.0018  6.00779e-14  1.75073e-15      1231.07      35.8745
       5810.1024  6.04422e-14  1.75371e-15      1241.56      36.0233
       5811.2030  6.02437e-14  1.75047e-15      1240.39      36.0415
       5812.3036  5.87904e-14  1.73102e-15      1213.31      35.7246
       5813.4042  5.73409e-14  1.70255e-15      1186.16      35.2192
       5814.5048  5.78656e-14  1.70750e-15      1199.69      35.4005
       5815.6054  5.76090e-14  1.69696e-15      1196.85      35.2550
       5816.7060  5.70643e-14  1.68522e-15      1187.71      35.0756
       5817.8066  5.70130e-14  1.68822e-15      1188.51      35.1931
       5818.9072  5.63451e-14  1.67903e-15      1176.31      35.0529
       5820.0078  5.71432e-14  1.69302e-15      1194.73      35.3972
       5821.1084  5.55705e-14  1.67361e-15      1163.51      35.0414
       5822.2090  5.29595e-14  1.63651e-15      1110.56      34.3177
       5823.3096  5.34542e-14  1.63890e-15      1122.67      34.4212
       5824.4102  5.34874e-14  1.64108e-15      1125.12      34.5206
       5825.5108  5.55754e-14  1.67223e-15      1170.70      35.2256
       5826.6114  5.55162e-14  1.65529e-15      1171.12      34.9185
       5827.7120  5.34397e-14  1.63191e-15      1128.73      34.4686
       5828.8126  5.33956e-14  1.63083e-15      1129.36      34.4934
       5829.9132  5.25799e-14  1.62067e-15      1113.47      34.3204
       5831.0138  5.28245e-14  1.62012e-15      1120.19      34.3561
       5832.1144  5.39365e-14  1.63388e-15      1145.41      34.6975
       5833.2150  5.20143e-14  1.60279e-15      1106.17      34.0860
       5834.3156  5.00768e-14  1.58441e-15      1066.49      33.7434
       5835.4162  5.08933e-14  1.59245e-15      1085.43      33.9632
       5836.5168  4.86337e-14  1.55206e-15      1038.72      33.1489
       5837.6174  4.66886e-14  1.51597e-15      998.604      32.4246
       5838.7180  4.34859e-14  1.46086e-15      931.383      31.2888
       5839.8186  4.13754e-14  1.42883e-15      887.341      30.6429
       5840.9192  3.97235e-14  1.39444e-15      853.122      29.9477
       5842.0198  4.14827e-14  1.43592e-15      892.276      30.8859
       5843.1203  4.30775e-14  1.47239e-15      927.995      31.7188
       5844.2209  4.21810e-14  1.46726e-15      910.042      31.6556
       5845.3215  4.67867e-14  1.54025e-15      1010.65      33.2713
       5846.4221  5.22555e-14  1.59223e-15      1130.14      34.4356
       5847.5227  5.43360e-14  1.61985e-15      1176.79      35.0823
       5848.6233  5.73767e-14  1.66771e-15      1244.71      36.1788
       5849.7239  6.13043e-14  1.72230e-15      1332.19      37.4267
       5850.8245  6.79356e-14  1.79040e-15      1478.78      38.9722
       5851.9251  7.29450e-14  1.86133e-15      1590.24      40.5778
       5853.0257  7.54746e-14  1.89142e-15      1647.82      41.2951
       5854.1263  7.28144e-14  1.86351e-15      1591.86      40.7397
       5855.2269  7.37840e-14  1.86604e-15      1615.13      40.8477
       5856.3275  7.10517e-14  1.84513e-15      1557.67      40.4507
       5857.4281  6.95935e-14  1.81414e-15      1527.99      39.8311
       5858.5287  6.45154e-14  1.75038e-15      1418.63      38.4892
       5859.6293  5.94719e-14  1.69539e-15      1309.69      37.3359
       5860.7299  5.90794e-14  1.67701e-15      1303.06      36.9885
       5861.8305  5.67581e-14  1.63133e-15      1253.81      36.0367
       5862.9311  5.20762e-14  1.56578e-15      1152.20      34.6431
       5864.0317  4.86903e-14  1.52187e-15      1079.11      33.7290
       5865.1323  4.27273e-14  1.45510e-15      948.473      32.3006
       5866.2329  3.95861e-14  1.39449e-15      880.135      31.0043
       5867.3335  4.39394e-14  1.45433e-15      978.451      32.3853
       5868.4341  4.06207e-14  1.39541e-15      905.962      31.1219
       5869.5347  4.46757e-14  1.44671e-15      997.914      32.3150
       5870.6353  4.74151e-14  1.50924e-15      1060.59      33.7590
       5871.7359  5.04939e-14  1.53857e-15      1130.80      34.4559
       5872.8365  5.42226e-14  1.59505e-15      1215.98      35.7702
       5873.9371  5.99114e-14  1.66920e-15      1345.55      37.4886
       5875.0377  6.90724e-14  1.79335e-15      1553.79      40.3416
       5876.1383  7.79316e-14  1.89866e-15      1755.89      42.7791
       5877.2389  9.15854e-14  2.04143e-15      2066.84      46.0696
       5878.3395  9.53354e-14  2.07950e-15      2154.89      47.0034
       5879.4401  1.05844e-13  2.19133e-15      2395.70      49.5994
       5880.5407  1.11142e-13  2.23674e-15      2519.08      50.6966
       5881.6413  1.17842e-13  2.29743e-15      2674.62      52.1438
       5882.7419  1.21218e-13  2.33557e-15      2755.23      53.0863
       5883.8425  1.22759e-13  2.35600e-15      2794.37      53.6296
       5884.9431  1.22246e-13  2.36303e-15      2786.78      53.8689
       5886.0437  1.19112e-13  2.31091e-15      2719.05      52.7529
       5887.1443  9.77920e-14  2.11694e-15      2235.12      48.3844
       5888.2449  8.14657e-14  1.96119e-15      1864.13      44.8766
       5889.3455  7.94748e-14  1.96095e-15      1820.61      44.9214
       5890.4460  8.94470e-14  2.06671e-15      2051.34      47.3971
       5891.5466  1.14240e-13  2.27611e-15      2622.87      52.2578
       5892.6472  1.20700e-13  2.31830e-15      2774.28      53.2861
       5893.7478  1.10223e-13  2.22643e-15      2535.98      51.2253
       5894.8484  9.76776e-14  2.10604e-15      2249.42      48.4999
       5895.9490  9.90676e-14  2.11799e-15      2282.91      48.8070
       5897.0496  1.22638e-13  2.36148e-15      2827.61      54.4476
       5898.1502  1.53162e-13  2.59966e-15      3532.89      59.9648
       5899.2508  1.57854e-13  2.63620e-15      3642.67      60.8336
       5900.3514  1.57609e-13  2.64145e-15      3638.58      60.9808
       5901.4520  1.60767e-13  2.65883e-15      3712.98      61.4068
       5902.5526  1.63009e-13  2.67750e-15      3766.25      61.8626
       5903.6532  1.59790e-13  2.64919e-15      3693.33      61.2327
       5904.7538  1.57737e-13  2.63670e-15      3647.34      60.9681
       5905.8544  1.51788e-13  2.58607e-15      3510.92      59.8168
       5906.9550  1.49533e-13  2.56405e-15      3459.61      59.3222
       5908.0556  1.34447e-13  2.44311e-15      3111.36      56.5379
       5909.1562  1.41960e-13  2.50327e-15      3286.27      57.9491
       5910.2568  1.35729e-13  2.44702e-15      3143.11      56.6663
       5911.3574  1.32897e-13  2.43128e-15      3078.78      56.3248
       5912.4580  1.26338e-13  2.36625e-15      2928.16      54.8430
       5913.5586  1.25908e-13  2.36612e-15      2919.52      54.8649
       5914.6592  1.22051e-13  2.32528e-15      2831.61      53.9469
       5915.7598  1.19547e-13  2.30519e-15      2775.01      53.5098
       5916.8604  1.14596e-13  2.25385e-15      2661.53      52.3462
       5917.9610  1.12900e-13  2.24533e-15      2623.55      52.1765
       5919.0616  1.13264e-13  2.23462e-15      2634.63      51.9796
       5920.1622  1.07211e-13  2.17041e-15      2497.29      50.5561
       5921.2628  1.03883e-13  2.14809e-15      2423.52      50.1135
       5922.3634  1.04752e-13  2.14475e-15      2447.69      50.1152
       5923.4640  1.04096e-13  2.14337e-15      2436.53      50.1692
       5924.5646  9.88342e-14  2.11132e-15      2317.98      49.5173
       5925.6652  1.01394e-13  2.12186e-15      2383.19      49.8724
       5926.7658  1.00516e-13  2.09255e-15      2367.65      49.2901
       5927.8664  1.00617e-13  2.09133e-15      2375.17      49.3678
       5928.9670  9.71188e-14  2.07062e-15      2297.54      48.9846
       5930.0676  9.64178e-14  2.05615e-15      2285.88      48.7471
       5931.1682  9.59494e-14  2.05247e-15      2279.67      48.7648
       5932.2688  9.59472e-14  2.05264e-15      2284.53      48.8740
       5933.3694  9.81951e-14  2.06248e-15      2343.08      49.2138
       5934.4700  9.44170e-14  2.03665e-15      2257.76      48.7017
       5935.5706  9.45385e-14  2.02577e-15      2265.52      48.5455
       5936.6712  9.28006e-14  2.00106e-15      2228.63      48.0560
       5937.7717  9.55914e-14  2.01836e-15      2300.37      48.5710
       5938.8723  9.16006e-14  1.98250e-15      2208.86      47.8060
       5939.9729  8.72933e-14  1.93309e-15      2109.31      46.7103
       5941.0735  8.59368e-14  1.91810e-15      2080.78      46.4427
       5942.1741  8.68990e-14  1.92196e-15      2107.45      46.6109
       5943.2747  8.79332e-14  1.92896e-15      2135.69      46.8498
       5944.3753  8.57347e-14  1.90898e-15      2085.78      46.4423
       5945.4759  8.40814e-14  1.89825e-15      2049.82      46.2774
       5946.5765  8.24178e-14  1.87295e-15      2013.19      45.7499
       5947.6771  7.91814e-14  1.83131e-15      1937.42      44.8086
       5948.7777  8.11632e-14  1.84763e-15      1989.08      45.2802
       5949.8783  8.11977e-14  1.84895e-15      1993.73      45.3993
       5950.9789  7.94683e-14  1.83174e-15      1955.02      45.0630
       5952.0795  7.70586e-14  1.81012e-15      1899.62      44.6224
       5953.1801  7.87697e-14  1.82707e-15      1946.03      45.1382
       5954.2807  7.60227e-14  1.78979e-15      1882.26      44.3137
       5955.3813  7.13984e-14  1.74560e-15      1771.61      43.3135
       5956.4819  7.51123e-14  1.77026e-15      1867.81      44.0209
       5957.5825  7.21561e-14  1.74095e-15      1798.18      43.3856
       5958.6831  7.27959e-14  1.75393e-15      1818.04      43.8033
       5959.7837  7.26713e-14  1.75009e-15      1818.84      43.8019
       5960.8843  7.44460e-14  1.75523e-15      1867.27      44.0251
       5961.9849  7.47149e-14  1.75524e-15      1878.05      44.1199
       5963.0855  7.37325e-14  1.75075e-15      1857.33      44.1016
       5964.1861  7.27053e-14  1.72720e-15      1835.39      43.6018
       5965.2867  7.24475e-14  1.73097e-15      1832.80      43.7906
       5966.3873  7.12394e-14  1.72215e-15      1805.64      43.6496
       5967.4879  7.14255e-14  1.70900e-15      1813.16      43.3836
       5968.5885  7.01896e-14  1.70251e-15      1783.77      43.2670
       5969.6891  7.17299e-14  1.71023e-15      1824.94      43.5116
       5970.7897  7.14284e-14  1.70628e-15      1819.27      43.4589
       5971.8903  7.11136e-14  1.70307e-15      1813.12      43.4216
       5972.9909  7.26121e-14  1.71990e-15      1852.66      43.8825
       5974.0915  7.49694e-14  1.74464e-15      1914.15      44.5450
       5975.1921  7.77398e-14  1.78075e-15      1986.00      45.4924
       5976.2927  7.65429e-14  1.77462e-15      1956.26      45.3551
       5977.3933  8.05104e-14  1.81125e-15      2058.53      46.3110
       5978.4939  8.26155e-14  1.83384e-15      2113.26      46.9086
       5979.5945  8.26699e-14  1.83281e-15      2115.55      46.9024
       5980.6951  8.10060e-14  1.81244e-15      2073.87      46.4010
       5981.7957  8.11790e-14  1.81612e-15      2079.21      46.5155
       5982.8963  8.37304e-14  1.83756e-15      2145.48      47.0850
       5983.9969  8.66523e-14  1.86276e-15      2221.32      47.7515
       5985.0974  8.71094e-14  1.87192e-15      2234.01      48.0071
       5986.1980  9.03535e-14  1.90346e-15      2318.21      48.8372
       5987.2986  8.95347e-14  1.89376e-15      2298.20      48.6095
       5988.3992  8.68735e-14  1.86608e-15      2230.86      47.9198
       5989.4998  8.75877e-14  1.87792e-15      2250.18      48.2450
       5990.6004  8.82627e-14  1.88423e-15      2268.51      48.4281
       5991.7010  8.91688e-14  1.89546e-15      2293.04      48.7430
       5992.8016  8.90543e-14  1.89551e-15      2291.48      48.7737
       5993.9022  8.78416e-14  1.87458e-15      2261.72      48.2661
       5995.0028  8.92065e-14  1.88228e-15      2298.72      48.5035
       5996.1034  8.79068e-14  1.87219e-15      2267.27      48.2869
       5997.2040  8.46218e-14  1.84183e-15      2184.64      47.5497
       5998.3046  8.38611e-14  1.82786e-15      2167.09      47.2344
       5999.4052  8.53817e-14  1.84151e-15      2209.14      47.6469
       6000.5058  8.47203e-14  1.83266e-15      2194.78      47.4774
       6001.6064  8.11304e-14  1.79541e-15      2104.93      46.5820
       6002.7070  7.98313e-14  1.78226e-15      2074.36      46.3106
       6003.8076  7.98256e-14  1.77782e-15      2077.36      46.2655
       6004.9082  7.97089e-14  1.77662e-15      2077.52      46.3055
       6006.0088  7.50020e-14  1.72701e-15      1957.85      45.0819
       6007.1094  7.20789e-14  1.69536e-15      1884.51      44.3254
       6008.2100  7.06040e-14  1.68178e-15      1848.86      44.0397
       6009.3106  6.92613e-14  1.65565e-15      1816.59      43.4246
       6010.4112  6.70039e-14  1.62396e-15      1760.21      42.6619
       6011.5118  6.34657e-14  1.58563e-15      1669.95      41.7219
       6012.6124  6.49284e-14  1.60604e-15      1711.19      42.3271
       6013.7130  6.44441e-14  1.59224e-15      1701.31      42.0347
       6014.8136  6.49830e-14  1.59283e-15      1718.27      42.1174
       6015.9142  6.32583e-14  1.57446e-15      1675.23      41.6953
       6017.0148  6.16197e-14  1.55424e-15      1634.31      41.2226
       6018.1154  6.22118e-14  1.55528e-15      1652.25      41.3059
       6019.2160  6.21714e-14  1.55405e-15      1653.26      41.3254
       6020.3166  6.21467e-14  1.55716e-15      1654.60      41.4582
       6021.4172  6.14340e-14  1.55326e-15      1637.64      41.4050
       6022.5178  6.15244e-14  1.55635e-15      1641.60      41.5268
       6023.6184  6.16547e-14  1.55512e-15      1646.72      41.5354
       6024.7190  6.01496e-14  1.53417e-15      1608.01      41.0138
       6025.8196  5.98125e-14  1.52569e-15      1600.51      40.8257
       6026.9202  6.09134e-14  1.53494e-15      1631.75      41.1179
       6028.0208  6.12337e-14  1.54315e-15      1642.13      41.3833
       6029.1214  6.01973e-14  1.53364e-15      1616.19      41.1755
       6030.2220  5.90115e-14  1.51851e-15      1586.12      40.8146
       6031.3226  5.79523e-14  1.51311e-15      1559.37      40.7146
       6032.4231  5.92268e-14  1.52796e-15      1595.44      41.1597
       6033.5237  5.88359e-14  1.52151e-15      1586.68      41.0319
       6034.6243  5.88401e-14  1.51256e-15      1588.73      40.8402
       6035.7249  5.89795e-14  1.51410e-15      1594.54      40.9345
       6036.8255  5.96164e-14  1.51771e-15      1613.69      41.0813
       6037.9261  5.98079e-14  1.51220e-15      1620.82      40.9813
       6039.0267  5.85004e-14  1.49710e-15      1587.29      40.6206
       6040.1273  5.88876e-14  1.50790e-15      1599.67      40.9618
       6041.2279  5.86155e-14  1.50561e-15      1594.18      40.9483
       6042.3285  5.81642e-14  1.49718e-15      1583.85      40.7692
       6043.4291  5.93353e-14  1.51547e-15      1617.79      41.3196
       6044.5297  6.12540e-14  1.53946e-15      1672.17      42.0257
       6045.6303  6.01043e-14  1.52047e-15      1642.82      41.5586
       6046.7309  5.96944e-14  1.51349e-15      1633.54      41.4169
       6047.8315  6.29095e-14  1.54817e-15      1723.25      42.4082
       6048.9321  6.59333e-14  1.58095e-15      1808.24      43.3580
       6050.0327  6.55265e-14  1.57707e-15      1798.97      43.2970
       6051.1333  6.42509e-14  1.56135e-15      1765.94      42.9138
       6052.2339  6.24576e-14  1.53699e-15      1718.51      42.2901
       6053.3345  6.23579e-14  1.53559e-15      1717.67      42.2983
       6054.4351  6.44076e-14  1.56568e-15      1776.40      43.1823
       6055.5357  6.55543e-14  1.57458e-15      1810.77      43.4940
       6056.6363  6.74026e-14  1.58691e-15      1864.80      43.9044
       6057.7369  6.77528e-14  1.59190e-15      1877.54      44.1140
       6058.8375  6.68244e-14  1.58407e-15      1854.70      43.9655
       6059.9381  6.53657e-14  1.56447e-15      1817.03      43.4889
       6061.0387  6.46617e-14  1.56422e-15      1800.25      43.5496
       6062.1393  6.56867e-14  1.57678e-15      1831.63      43.9673
       6063.2399  6.84227e-14  1.59307e-15      1910.88      44.4906
       6064.3405  6.81468e-14  1.58600e-15      1906.09      44.3609
       6065.4411  6.54922e-14  1.56001e-15      1834.57      43.6991
       6066.5417  6.56906e-14  1.56495e-15      1842.88      43.9030
       6067.6423  6.58683e-14  1.56802e-15      1850.90      44.0614
       6068.7429  6.67596e-14  1.57096e-15      1879.21      44.2210
       6069.8435  6.93950e-14  1.59709e-15      1956.80      45.0347
       6070.9441  6.96055e-14  1.60198e-15      1966.14      45.2510
       6072.0447  6.82075e-14  1.58162e-15      1929.55      44.7430
       6073.1453  6.76537e-14  1.57964e-15      1916.76      44.7543
       6074.2459  6.86167e-14  1.58536e-15      1947.01      44.9849
       6075.3465  6.86334e-14  1.57907e-15      1950.44      44.8744
       6076.4471  6.77729e-14  1.56882e-15      1929.20      44.6576
       6077.5477  6.84778e-14  1.57741e-15      1952.75      44.9823
       6078.6483  6.92224e-14  1.58950e-15      1977.01      45.3965
       6079.7488  6.96002e-14  1.58463e-15      1990.72      45.3240
       6080.8494  6.98629e-14  1.58810e-15      2000.96      45.4853
       6081.9500  6.98870e-14  1.58835e-15      2004.38      45.5544
       6083.0506  6.83009e-14  1.57190e-15      1961.56      45.1439
       6084.1512  6.81232e-14  1.57280e-15      1959.12      45.2313
       6085.2518  6.92968e-14  1.57968e-15      1995.58      45.4910
       6086.3524  6.97098e-14  1.58436e-15      2010.21      45.6879
       6087.4530  6.88469e-14  1.58106e-15      1988.02      45.6546
       6088.5536  6.91437e-14  1.57767e-15      1999.30      45.6186
       6089.6542  6.92469e-14  1.57102e-15      2004.92      45.4862
       6090.7548  6.95563e-14  1.57192e-15      2016.23      45.5653
       6091.8554  6.83132e-14  1.55731e-15      1982.33      45.1904
       6092.9560  6.66857e-14  1.54235e-15      1937.18      44.8044
       6094.0566  6.80476e-14  1.55405e-15      1978.86      45.1926
       6095.1572  6.95331e-14  1.57002e-15      2024.23      45.7060
       6096.2578  7.03793e-14  1.58450e-15      2051.06      46.1769
       6097.3584  7.02186e-14  1.58341e-15      2048.29      46.1883
       6098.4590  6.95322e-14  1.58058e-15      2030.14      46.1484
       6099.5596  6.95226e-14  1.57547e-15      2031.38      46.0337
       6100.6602  6.94711e-14  1.56535e-15      2030.82      45.7594
       6101.7608  6.96736e-14  1.57140e-15      2037.66      45.9568
       6102.8614  6.91694e-14  1.56947e-15      2024.20      45.9294
       6103.9620  7.08050e-14  1.58212e-15      2073.45      46.3306
       6105.0626  7.02218e-14  1.57753e-15      2057.93      46.2313
       6106.1632  7.21483e-14  1.59898e-15      2116.01      46.8957
       6107.2638  7.44018e-14  1.61995e-15      2184.24      47.5575
       6108.3644  7.40255e-14  1.61517e-15      2175.39      47.4652
       6109.4650  7.59257e-14  1.63694e-15      2233.48      48.1534
       6110.5656  8.04052e-14  1.68301e-15      2367.78      49.5612
       6111.6662  8.08828e-14  1.68500e-15      2384.38      49.6729
       6112.7668  8.00218e-14  1.67927e-15      2361.51      49.5566
       6113.8674  8.20187e-14  1.70242e-15      2423.02      50.2933
       6114.9680  8.34826e-14  1.70956e-15      2468.89      50.5580
       6116.0686  8.57248e-14  1.72964e-15      2537.90      51.2064
       6117.1692  8.69297e-14  1.74204e-15      2576.45      51.6312
       6118.2698  8.64497e-14  1.73560e-15      2565.48      51.5058
       6119.3704  8.55093e-14  1.71913e-15      2540.80      51.0819
       6120.4710  8.75555e-14  1.73424e-15      2604.91      51.5963
       6121.5716  8.87623e-14  1.74672e-15      2644.17      52.0338
       6122.6722  8.99094e-14  1.76133e-15      2681.75      52.5356
       6123.7728  8.94983e-14  1.75551e-15      2672.88      52.4286
       6124.8734  9.12518e-14  1.76694e-15      2728.71      52.8367
       6125.9739  9.19325e-14  1.77747e-15      2752.31      53.2147
       6127.0745  9.35559e-14  1.79623e-15      2804.34      53.8421
       6128.1751  9.92687e-14  1.84473e-15      2978.96      55.3588
       6129.2757  1.01893e-13  1.86668e-15      3061.17      56.0806
       6130.3763  1.05290e-13  1.89628e-15      3166.11      57.0218
       6131.4769  1.11761e-13  1.95022e-15      3363.69      58.6958
       6132.5775  1.16281e-13  1.98652e-15      3502.83      59.8413
       6133.6781  1.21695e-13  2.02821e-15      3669.04      61.1497
       6134.7787  1.24613e-13  2.05321e-15      3760.93      61.9679
       6135.8793  1.26055e-13  2.06253e-15      3808.58      62.3165
       6136.9799  1.26954e-13  2.06870e-15      3840.20      62.5757
       6138.0805  1.27758e-13  2.08306e-15      3869.02      63.0833
       6139.1811  1.27427e-13  2.08631e-15      3863.47      63.2551
       6140.2817  1.28013e-13  2.08341e-15      3885.54      63.2370
       6141.3823  1.32017e-13  2.10449e-15      4010.91      63.9380
       6142.4829  1.36819e-13  2.13722e-15      4160.77      64.9945
       6143.5835  1.37886e-13  2.15260e-15      4197.67      65.5316
       6144.6841  1.38314e-13  2.16147e-15      4215.26      65.8732
       6145.7847  1.38111e-13  2.15274e-15      4214.46      65.6911
       6146.8853  1.36253e-13  2.13814e-15      4164.67      65.3537
       6147.9859  1.36287e-13  2.14115e-15      4173.80      65.5728
       6149.0865  1.35639e-13  2.13024e-15      4161.65      65.3597
       6150.1871  1.31912e-13  2.09540e-15      4054.51      64.4051
       6151.2877  1.32704e-13  2.09719e-15      4086.11      64.5747
       6152.3883  1.33187e-13  2.09746e-15      4108.22      64.6973
       6153.4889  1.31180e-13  2.07893e-15      4053.45      64.2389
       6154.5895  1.29805e-13  2.06705e-15      4018.05      63.9844
       6155.6901  1.29315e-13  2.06112e-15      4009.94      63.9133
       6156.7907  1.27467e-13  2.04301e-15      3959.46      63.4616
       6157.8913  1.26959e-13  2.04040e-15      3949.83      63.4793
       6158.9919  1.29112e-13  2.05818e-15      4022.90      64.1289
       6160.0925  1.25928e-13  2.02797e-15      3929.32      63.2788
       6161.1931  1.21231e-13  1.99072e-15      3788.42      62.2094
       6162.2937  1.19027e-13  1.97155e-15      3725.18      61.7033
       6163.3943  1.14461e-13  1.93600e-15      3587.84      60.6853
       6164.4949  1.10178e-13  1.89501e-15      3458.97      59.4928
       6165.5955  1.06965e-13  1.87097e-15      3363.33      58.8294
       6166.6961  1.03111e-13  1.83592e-15      3246.85      57.8111
       6167.7967  1.00802e-13  1.81539e-15      3178.67      57.2459
       6168.8973  9.83943e-14  1.79428e-15      3106.69      56.6522
       6169.9979  9.52712e-14  1.76980e-15      3010.84      55.9306
       6171.0985  9.46674e-14  1.76067e-15      2993.86      55.6814
       6172.1991  9.50646e-14  1.75853e-15      3009.40      55.6686
       6173.2996  9.30243e-14  1.73547e-15      2947.70      54.9927
       6174.4002  9.05640e-14  1.71226e-15      2872.55      54.3103
       6175.5008  8.94690e-14  1.70257e-15      2840.60      54.0560
       6176.6014  8.85304e-14  1.69651e-15      2813.55      53.9161
       6177.7020  8.72183e-14  1.68512e-15      2774.68      53.6088
       6178.8026  8.44127e-14  1.65206e-15      2688.17      52.6108
       6179.9032  8.34197e-14  1.64537e-15      2659.26      52.4513
       6181.0038  8.33070e-14  1.64001e-15      2658.49      52.3361
       6182.1044  8.45830e-14  1.64467e-15      2702.73      52.5531
       6183.2050  8.51937e-14  1.65178e-15      2725.89      52.8510
       6184.3056  8.46794e-14  1.65558e-15      2713.07      53.0436
       6185.4062  8.51087e-14  1.65747e-15      2730.66      53.1790
       6186.5068  8.38885e-14  1.64410e-15      2695.21      52.8225
       6187.6074  8.07275e-14  1.61140e-15      2597.31      51.8449
       6188.7080  7.97853e-14  1.59541e-15      2570.62      51.4031
       6189.8086  7.93037e-14  1.59286e-15      2558.71      51.3931
       6190.9092  7.73936e-14  1.57322e-15      2500.61      50.8311
       6192.0098  7.69574e-14  1.56636e-15      2489.99      50.6805
       6193.1104  7.70914e-14  1.57390e-15      2498.00      50.9993
       6194.2110  7.55414e-14  1.55361e-15      2451.23      50.4129
       6195.3116  7.39025e-14  1.53274e-15      2400.75      49.7917
       6196.4122  7.27388e-14  1.51968e-15      2365.60      49.4228
       6197.5128  7.24408e-14  1.51380e-15      2358.57      49.2872
       6198.6134  7.50034e-14  1.54074e-15      2444.75      50.2206
       6199.7140  7.28439e-14  1.52647e-15      2377.13      49.8137
       6200.8146  6.99432e-14  1.49635e-15      2285.45      48.8946
       6201.9152  6.83721e-14  1.47379e-15      2237.05      48.2205
       6203.0158  6.59138e-14  1.44971e-15      2159.50      47.4962
       6204.1164  6.73475e-14  1.45954e-15      2209.33      47.8801
       6205.2170  6.97225e-14  1.48203e-15      2289.67      48.6694
       6206.3176  6.98964e-14  1.48528e-15      2297.70      48.8255
       6207.4182  6.94568e-14  1.48255e-15      2285.43      48.7825
       6208.5188  7.04717e-14  1.48978e-15      2320.86      49.0632
       6209.6194  7.09886e-14  1.49047e-15      2339.95      49.1292
       6210.7200  7.19650e-14  1.50257e-15      2374.14      49.5700
       6211.8206  7.02837e-14  1.49182e-15      2320.65      49.2575
       6212.9212  6.92273e-14  1.48617e-15      2287.81      49.1146
       6214.0218  7.02726e-14  1.49248e-15      2324.45      49.3678
       6215.1224  7.21484e-14  1.50364e-15      2388.84      49.7857
       6216.2230  7.51736e-14  1.52796e-15      2491.25      50.6364
       6217.3236  7.94849e-14  1.57198e-15      2636.47      52.1418
       6218.4242  8.13501e-14  1.59081e-15      2700.74      52.8134
       6219.5248  8.39768e-14  1.61018e-15      2790.42      53.5039
       6220.6253  8.87152e-14  1.66282e-15      2950.50      55.3023
       6221.7259  9.32031e-14  1.70202e-15      3102.51      56.6564
       6222.8265  9.47016e-14  1.71118e-15      3155.31      57.0139
       6223.9271  9.60761e-14  1.72261e-15      3203.99      57.4463
       6225.0277  1.00021e-13  1.75148e-15      3338.56      58.4622
       6226.1283  1.06349e-13  1.80285e-15      3553.10      60.2325
       6227.2289  1.13118e-13  1.85779e-15      3783.65      62.1403
       6228.3295  1.17696e-13  1.89121e-15      3941.59      63.3357
       6229.4301  1.22082e-13  1.93055e-15      4093.94      64.7395
       6230.5307  1.28077e-13  1.97660e-15      4301.11      66.3788
       6231.6313  1.35486e-13  2.03532e-15      4556.50      68.4492
       6232.7319  1.38976e-13  2.06164e-15      4680.84      69.4377
       6233.8325  1.43117e-13  2.08810e-15      4827.62      70.4357
       6234.9331  1.43847e-13  2.09516e-15      4859.60      70.7810
       6236.0337  1.41857e-13  2.08333e-15      4799.50      70.4863
       6237.1343  1.42389e-13  2.08389e-15      4824.75      70.6111
       6238.2349  1.43204e-13  2.08463e-15      4859.12      70.7346
       6239.3355  1.45405e-13  2.09422e-15      4940.58      71.1574
       6240.4361  1.49617e-13  2.11997e-15      5090.57      72.1297
       6241.5367  1.49652e-13  2.12358e-15      5098.64      72.3500
       6242.6373  1.46155e-13  2.10162e-15      4986.04      71.6964
       6243.7379  1.46053e-13  2.09505e-15      4988.77      71.5611
       6244.8385  1.48762e-13  2.10520e-15      5087.58      71.9967
       6245.9391  1.49944e-13  2.11493e-15      5133.49      72.4065
       6247.0397  1.49042e-13  2.10974e-15      5107.24      72.2949
       6248.1403  1.46636e-13  2.08707e-15      5029.25      71.5814
       6249.2409  1.45317e-13  2.07837e-15      4988.19      71.3425
       6250.3415  1.43084e-13  2.06236e-15      4914.49      70.8358
       6251.4421  1.39505e-13  2.03480e-15      4794.12      69.9264
       6252.5427  1.35722e-13  2.01148e-15      4666.11      69.1548
       6253.6433  1.31811e-13  1.98220e-15      4533.16      68.1705
       6254.7439  1.31032e-13  1.97006e-15      4507.82      67.7750
       6255.8445  1.27207e-13  1.94779e-15      4377.33      67.0254
       6256.9451  1.23170e-13  1.92701e-15      4239.33      66.3249
       6258.0457  1.20052e-13  1.90621e-15      4132.92      65.6231
       6259.1463  1.16734e-13  1.87649e-15      4019.48      64.6126
       6260.2469  1.13809e-13  1.84579e-15      3919.47      63.5670
       6261.3475  1.09114e-13  1.80602e-15      3758.44      62.2085
       6262.4481  1.06131e-13  1.77967e-15      3656.41      61.3129
       6263.5487  1.02536e-13  1.74977e-15      3533.09      60.2919
       6264.6493  9.74409e-14  1.70798e-15      3357.64      58.8540
       6265.7499  9.51277e-14  1.68643e-15      3278.13      58.1148
       6266.8505  9.37830e-14  1.67525e-15      3232.22      57.7374
       6267.9510  9.18656e-14  1.66007e-15      3166.59      57.2225
       6269.0516  9.25342e-14  1.66429e-15      3190.39      57.3813
       6270.1522  9.51223e-14  1.68680e-15      3280.39      58.1711
       6271.2528  9.69283e-14  1.70298e-15      3343.46      58.7429
       6272.3534  1.01812e-13  1.73957e-15      3512.80      60.0197
       6273.4540  1.06317e-13  1.77769e-15      3669.14      61.3503
       6274.5546  1.09633e-13  1.80337e-15      3784.50      62.2518
       6275.6552  1.11007e-13  1.81340e-15      3832.89      62.6133
       6276.7558  1.10247e-13  1.81117e-15      3807.56      62.5520
       6277.8564  1.16496e-13  1.85600e-15      4024.38      64.1160
       6278.9570  1.22788e-13  1.90437e-15      4242.78      65.8033
       6280.0576  1.28048e-13  1.94501e-15      4425.65      67.2241
       6281.1582  1.34557e-13  1.99063e-15      4651.75      68.8179
       6282.2588  1.35001e-13  1.99704e-15      4668.25      69.0567
       6283.3594  1.36771e-13  2.01306e-15      4730.65      69.6280
       6284.4600  1.45596e-13  2.07629e-15      5037.11      71.8326
       6285.5606  1.57601e-13  2.15785e-15      5453.81      74.6726
       6286.6612  1.69941e-13  2.24237e-15      5882.68      77.6219
       6287.7618  1.76700e-13  2.28624e-15      6119.30      79.1749
       6288.8624  1.80541e-13  2.30749e-15      6255.07      79.9459
       6289.9630  1.87005e-13  2.34929e-15      6481.85      81.4296
       6291.0636  1.92427e-13  2.37832e-15      6672.71      82.4718
       6292.1642  1.97532e-13  2.40623e-15      6852.70      83.4762
       6293.2648  2.04057e-13  2.45053e-15      7082.17      85.0501
       6294.3654  2.13812e-13  2.51444e-15      7423.96      87.3063
       6295.4660  2.16929e-13  2.54193e-15      7535.95      88.3047
       6296.5666  2.15714e-13  2.54652e-15      7500.85      88.5478
       6297.6672  2.19021e-13  2.58997e-15      7625.02      90.1673
       6298.7678  2.20067e-13  2.65107e-15      7671.42      92.4148
       6299.8684  2.21629e-13  2.72263e-15      7736.12      95.0352
       6300.9690  2.22765e-13  2.71491e-15      7786.09      94.8918
       6302.0696  2.21363e-13  2.62574e-15      7747.67      91.9005
       6303.1702  2.19742e-13  2.55877e-15      7702.39      89.6899
       6304.2708  2.18190e-13  2.52430e-15      7659.54      88.6154
       6305.3714  2.12348e-13  2.48595e-15      7466.37      87.4084
       6306.4720  2.09653e-13  2.47621e-15      7383.42      87.2055
       6307.5726  2.11105e-13  2.48397e-15      7446.48      87.6191
       6308.6732  2.08932e-13  2.45852e-15      7381.73      86.8615
       6309.7738  2.05045e-13  2.42718e-15      7256.38      85.8960
       6310.8744  2.02213e-13  2.40922e-15      7168.38      85.4059
       6311.9750  2.00368e-13  2.39281e-15      7115.31      84.9714
       6313.0756  1.96949e-13  2.36719e-15      7006.12      84.2087
       6314.1762  1.91253e-13  2.33255e-15      6815.51      83.1229
       6315.2767  1.82958e-13  2.28171e-15      6531.82      81.4595
       6316.3773  1.73908e-13  2.22456e-15      6221.40      79.5818
       6317.4779  1.62830e-13  2.15346e-15      5837.03      77.1960
       6318.5785  1.54800e-13  2.09685e-15      5560.20      75.3158
       6319.6791  1.48559e-13  2.05741e-15      5344.29      74.0135
       6320.7797  1.42454e-13  2.01996e-15      5131.27      72.7601
       6321.8803  1.37789e-13  1.98184e-15      4969.17      71.4723
       6322.9809  1.34777e-13  1.95307e-15      4866.25      70.5171
       6324.0815  1.29056e-13  1.91331e-15      4665.19      69.1633
       6325.1821  1.23309e-13  1.87131e-15      4462.50      67.7219
       6326.2827  1.20892e-13  1.85560e-15      4379.43      67.2213
       6327.3833  1.17967e-13  1.83559e-15      4277.55      66.5598
       6328.4839  1.17496e-13  1.83104e-15      4264.15      66.4521
       6329.5845  1.17390e-13  1.82830e-15      4263.98      66.4097
       6330.6851  1.17200e-13  1.82468e-15      4260.76      66.3354
       6331.7857  1.15573e-13  1.81056e-15      4205.16      65.8778
       6332.8863  1.12168e-13  1.78503e-15      4084.54      65.0010
       6333.9869  1.11140e-13  1.77165e-15      4050.16      64.5623
       6335.0875  1.10759e-13  1.76162e-15      4039.20      64.2434
       6336.1881  1.10103e-13  1.75772e-15      4018.13      64.1465
       6337.2887  1.08019e-13  1.74603e-15      3944.80      63.7640
       6338.3893  1.09459e-13  1.75464e-15      3999.88      64.1189
       6339.4899  1.12513e-13  1.77394e-15      4113.19      64.8507
       6340.5905  1.13110e-13  1.78015e-15      4136.72      65.1042
       6341.6911  1.13004e-13  1.78283e-15      4134.50      65.2288
       6342.7917  1.14974e-13  1.80033e-15      4208.31      65.8959
       6343.8923  1.15479e-13  1.80389e-15      4228.49      66.0532
       6344.9929  1.18323e-13  1.82735e-15      4334.41      66.9395
       6346.0935  1.21475e-13  1.85174e-15      4451.67      67.8608
       6347.1941  1.25107e-13  1.87384e-15      4586.60      68.6978
       6348.2947  1.27642e-13  1.89079e-15      4681.40      69.3468
       6349.3953  1.26800e-13  1.88970e-15      4652.41      69.3351
       6350.4959  1.27753e-13  1.88898e-15      4689.47      69.3392
       6351.5965  1.30178e-13  1.90500e-15      4780.59      69.9582
       6352.6971  1.31390e-13  1.91237e-15      4829.24      70.2890
       6353.7977  1.35598e-13  1.94296e-15      4988.40      71.4782
       6354.8983  1.38560e-13  1.96572e-15      5102.01      72.3811
       6355.9989  1.40537e-13  1.98676e-15      5179.52      73.2225
       6357.0995  1.44194e-13  2.00714e-15      5319.10      74.0408
       6358.2001  1.44990e-13  2.00905e-15      5353.70      74.1831
       6359.3007  1.45819e-13  2.01675e-15      5390.08      74.5475
       6360.4013  1.48483e-13  2.03578e-15      5494.56      75.3334
       6361.5019  1.46744e-13  2.04152e-15      5436.27      75.6303
       6362.6024  1.47221e-13  2.07796e-15      5460.05      77.0659
       6363.7030  1.47911e-13  2.10542e-15      5491.73      78.1716
       6364.8036  1.46326e-13  2.07130e-15      5438.95      76.9903
       6365.9042  1.46634e-13  2.03346e-15      5456.45      75.6681
       6367.0048  1.48795e-13  2.03087e-15      5543.04      75.6557
       6368.1054  1.45483e-13  1.99962e-15      5425.68      74.5748
       6369.2060  1.44852e-13  1.99090e-15      5408.18      74.3323
       6370.3066  1.48568e-13  2.01872e-15      5553.11      75.4548
       6371.4072  1.49150e-13  2.01900e-15      5581.06      75.5490
       6372.5078  1.46210e-13  1.99557e-15      5477.13      74.7554
       6373.6084  1.43690e-13  1.97862e-15      5388.70      74.2028
       6374.7090  1.41479e-13  1.96337e-15      5311.70      73.7127
       6375.8096  1.39665e-13  1.95192e-15      5247.27      73.3347
       6376.9102  1.39457e-13  1.94490e-15      5242.88      73.1184
       6378.0108  1.38417e-13  1.94124e-15      5207.18      73.0285
       6379.1114  1.32868e-13  1.90839e-15      5001.71      71.8398
       6380.2120  1.31358e-13  1.89818e-15      4949.02      71.5156
       6381.3126  1.29869e-13  1.88341e-15      4899.06      71.0483
       6382.4132  1.27353e-13  1.86033e-15      4809.74      70.2590
       6383.5138  1.23302e-13  1.83236e-15      4662.02      69.2807
       6384.6144  1.23207e-13  1.82971e-15      4663.59      69.2577
       6385.7150  1.20424e-13  1.81204e-15      4563.32      68.6654
       6386.8156  1.16497e-13  1.78672e-15      4419.43      67.7810
       6387.9162  1.14641e-13  1.76359e-15      4353.87      66.9783
       6389.0168  1.14275e-13  1.75600e-15      4345.67      66.7776
       6390.1174  1.11043e-13  1.73658e-15      4228.40      66.1273
       6391.2180  1.08196e-13  1.70717e-15      4125.52      65.0945
       6392.3186  1.06158e-13  1.69427e-15      4053.52      64.6937
       6393.4192  1.06607e-13  1.69627e-15      4076.59      64.8641
       6394.5198  1.06433e-13  1.69417e-15      4076.54      64.8892
       6395.6204  1.05670e-13  1.69293e-15      4053.05      64.9334
       6396.7210  1.05299e-13  1.68854e-15      4043.53      64.8404
       6397.8216  1.04500e-13  1.67839e-15      4017.03      64.5184
       6398.9222  1.07023e-13  1.69047e-15      4117.98      65.0451
       6400.0228  1.07144e-13  1.68976e-15      4126.62      65.0802
       6401.1234  1.05412e-13  1.67999e-15      4063.79      64.7663
       6402.2240  1.07414e-13  1.68831e-15      4145.00      65.1500
       6403.3246  1.05650e-13  1.67169e-15      4080.10      64.5589
       6404.4252  1.08485e-13  1.69675e-15      4190.32      65.5387
       6405.5258  1.06689e-13  1.68789e-15      4121.74      65.2083
       6406.6264  1.06512e-13  1.68772e-15      4115.63      65.2139
       6407.7270  1.08269e-13  1.69494e-15      4184.28      65.5047
       6408.8276  1.09219e-13  1.70476e-15      4221.79      65.8964
       6409.9281  1.10986e-13  1.71699e-15      4290.86      66.3810
       6411.0287  1.13870e-13  1.73781e-15      4403.17      67.1984
       6412.1293  1.13131e-13  1.72991e-15      4374.52      66.8918
       6413.2299  1.14643e-13  1.75028e-15      4432.79      67.6766
       6414.3305  1.19644e-13  1.78493e-15      4626.00      69.0136
       6415.4311  1.18733e-13  1.77532e-15      4590.19      68.6337
       6416.5317  1.25381e-13  1.82267e-15      4846.45      70.4532
       6417.6323  1.27731e-13  1.84470e-15      4935.67      71.2809
       6418.7329  1.29135e-13  1.85461e-15      4989.30      71.6554
       6419.8335  1.24501e-13  1.82869e-15      4810.85      70.6626
       6420.9341  1.24300e-13  1.81862e-15      4804.26      70.2903
       6422.0347  1.24576e-13  1.81979e-15      4816.50      70.3587
       6423.1353  1.21346e-13  1.79652e-15      4693.16      69.4820
       6424.2359  1.26136e-13  1.82442e-15      4880.02      70.5845
       6425.3365  1.28152e-13  1.84303e-15      4959.66      71.3279
       6426.4371  1.31665e-13  1.87121e-15      5097.32      72.4427
       6427.5377  1.33988e-13  1.88716e-15      5189.64      73.0935
       6428.6383  1.33895e-13  1.88387e-15      5188.42      72.9996
       6429.7389  1.34224e-13  1.88397e-15      5203.56      73.0371
       6430.8395  1.34898e-13  1.89063e-15      5232.10      73.3290
       6431.9401  1.35558e-13  1.89436e-15      5260.73      73.5163
       6433.0407  1.39723e-13  1.92610e-15      5425.52      74.7916
       6434.1413  1.43390e-13  1.94116e-15      5571.13      75.4200
       6435.2419  1.45668e-13  1.95743e-15      5662.94      76.0964
       6436.3425  1.57248e-13  2.03420e-15      6116.68      79.1271
       6437.4431  1.65290e-13  2.08043e-15      6433.27      80.9727
       6438.5437  1.74238e-13  2.13306e-15      6785.52      83.0701
       6439.6443  1.79805e-13  2.16875e-15      7006.43      84.5093
       6440.7449  1.86825e-13  2.21427e-15      7284.26      86.3337
       6441.8455  1.91400e-13  2.23538e-15      7467.02      87.2080
       6442.9461  1.93506e-13  2.24486e-15      7553.61      87.6292
       6444.0467  1.90580e-13  2.23389e-15      7443.75      87.2523
       6445.1473  1.90005e-13  2.23061e-15      7425.68      87.1754
       6446.2479  1.93475e-13  2.24269e-15      7565.74      87.6990
       6447.3485  1.89483e-13  2.22769e-15      7413.98      87.1638
       6448.4491  1.91312e-13  2.23278e-15      7489.93      87.4143
       6449.5497  1.94473e-13  2.24946e-15      7619.29      88.1317
       6450.6503  1.96718e-13  2.26337e-15      7713.85      88.7528
       6451.7509  1.94948e-13  2.26091e-15      7651.61      88.7397
       6452.8515  1.96631e-13  2.26099e-15      7724.91      88.8262
       6453.9521  1.94560e-13  2.24808e-15      7650.75      88.4021
       6455.0527  1.96029e-13  2.25963e-15      7714.80      88.9289
       6456.1532  1.97260e-13  2.26092e-15      7769.61      89.0526
       6457.2538  1.95011e-13  2.24087e-15      7687.33      88.3350
       6458.3544  1.92921e-13  2.22722e-15      7611.16      87.8687
       6459.4550  1.98252e-13  2.26210e-15      7828.18      89.3215
       6460.5556  1.92299e-13  2.22886e-15      7600.25      88.0913
       6461.6562  1.94532e-13  2.24098e-15      7696.28      88.6600
       6462.7568  1.94438e-13  2.23826e-15      7700.29      88.6418
       6463.8574  1.91681e-13  2.23068e-15      7598.77      88.4304
       6464.9580  1.91032e-13  2.22485e-15      7580.67      88.2882
       6466.0586  1.89254e-13  2.21444e-15      7517.71      87.9640
       6467.1592  1.89223e-13  2.21046e-15      7523.57      87.8890
       6468.2598  1.90336e-13  2.21653e-15      7575.00      88.2136
       6469.3604  1.81200e-13  2.15955e-15      7218.25      86.0275
       6470.4610  1.80991e-13  2.16401e-15      7216.74      86.2866
       6471.5616  1.72084e-13  2.11106e-15      6868.07      84.2551
       6472.6622  1.59238e-13  2.02375e-15      6360.49      80.8352
       6473.7628  1.56186e-13  1.99944e-15      6242.80      79.9184
       6474.8634  1.44401e-13  1.93221e-15      5775.27      77.2784
       6475.9640  1.45621e-13  1.93806e-15      5827.61      77.5595
       6477.0646  1.43495e-13  1.92500e-15      5746.06      77.0837
       6478.1652  1.37920e-13  1.88715e-15      5526.20      75.6144
       6479.2658  1.37734e-13  1.88005e-15      5522.10      75.3759
       6480.3664  1.35233e-13  1.86186e-15      5425.12      74.6920
       6481.4670  1.32717e-13  1.84913e-15      5327.43      74.2268
       6482.5676  1.33676e-13  1.85046e-15      5368.99      74.3227
       6483.6682  1.33102e-13  1.85260e-15      5348.57      74.4451
       6484.7688  1.33114e-13  1.84355e-15      5351.32      74.1128
       6485.8694  1.33851e-13  1.85295e-15      5383.21      74.5222
       6486.9700  1.33271e-13  1.84924e-15      5362.17      74.4043
       6488.0706  1.35255e-13  1.85441e-15      5444.30      74.6439
       6489.1712  1.31615e-13  1.83272e-15      5300.02      73.8020
       6490.2718  1.30950e-13  1.83595e-15      5275.79      73.9675
       6491.3724  1.30022e-13  1.82716e-15      5240.93      73.6490
       6492.4730  1.27286e-13  1.80681e-15      5133.13      72.8643
       6493.5736  1.31106e-13  1.83747e-15      5290.32      74.1447
       6494.6742  1.34343e-13  1.85954e-15      5424.15      75.0798
       6495.7748  1.36282e-13  1.87398e-15      5505.73      75.7080
       6496.8754  1.36806e-13  1.88423e-15      5530.20      76.1673
       6497.9760  1.41307e-13  1.91978e-15      5715.53      77.6505
       6499.0766  1.45028e-13  1.94159e-15      5869.52      78.5795
       6500.1772  1.51613e-13  1.97420e-15      6139.69      79.9469
       6501.2778  1.49198e-13  1.95466e-15      6045.56      79.2035
       6502.3784  1.48917e-13  1.94686e-15      6037.87      78.9355
       6503.4789  1.45010e-13  1.92768e-15      5883.04      78.2059
       6504.5795  1.45687e-13  1.93742e-15      5914.13      78.6491
       6505.6801  1.42190e-13  1.90428e-15      5775.72      77.3513
       6506.7807  1.40972e-13  1.90037e-15      5729.74      77.2399
       6507.8813  1.44721e-13  1.91361e-15      5885.73      77.8258
       6508.9819  1.46949e-13  1.93783e-15      5980.00      78.8591
       6510.0825  1.51321e-13  1.95878e-15      6161.69      79.7605
       6511.1831  1.56114e-13  1.98827e-15      6360.79      81.0110
       6512.2837  1.60157e-13  2.01818e-15      6529.53      82.2800
       6513.3843  1.64366e-13  2.04443e-15      6705.23      83.4016
       6514.4849  1.68965e-13  2.07489e-15      6897.09      84.6959
       6515.5855  1.73734e-13  2.10361e-15      7096.12      85.9210
       6516.6861  1.84730e-13  2.16173e-15      7549.03      88.3394
       6517.7867  1.96086e-13  2.22017e-15      8017.12      90.7736
       6518.8873  2.03071e-13  2.26283e-15      8306.89      92.5644
       6519.9879  2.12316e-13  2.31242e-15      8689.47      94.6405
       6521.0885  2.24624e-13  2.38059e-15      9197.85      97.4796
       6522.1891  2.37529e-13  2.44924e-15      9732.58      100.356
       6523.2897  2.48843e-13  2.50138e-15      10202.6      102.557
       6524.3903  2.60282e-13  2.55623e-15      10678.3      104.872
       6525.4909  2.73569e-13  2.61918e-15      11230.5      107.522
       6526.5915  2.84834e-13  2.67019e-15      11700.3      109.685
       6527.6921  2.94147e-13  2.71109e-15      12090.5      111.436
       6528.7927  2.98658e-13  2.73493e-15      12283.7      112.487
       6529.8933  3.05184e-13  2.76491e-15      12560.1      113.792
       6530.9939  3.07250e-13  2.77513e-15      12653.1      114.285
       6532.0945  3.13702e-13  2.80860e-15      12926.9      115.736
       6533.1951  3.36891e-13  2.90901e-15      13891.3      119.950
       6534.2957  3.73796e-13  3.05468e-15      15422.5      126.033
       6535.3963  4.35807e-13  3.28609e-15      17991.0      135.656
       6536.4969  5.17114e-13  3.57112e-15      21358.7      147.500
       6537.5975  6.28285e-13  3.92935e-15      25962.5      162.372
       6538.6981  7.73932e-13  4.35606e-15      31995.6      180.087
       6539.7987  9.67611e-13  4.86567e-15      40013.7      201.210
       6540.8993  1.20662e-12  5.42686e-15      49911.0      224.478
       6541.9999  1.49421e-12  6.03135e-15      61819.7      249.533
       6543.1005  1.81464e-12  6.64591e-15      75084.8      274.990
       6544.2011  2.15099e-12  7.23348e-15      89007.5      299.320
       6545.3017  2.49893e-12  7.79244e-15      103394.      322.416
       6546.4023  2.78677e-12  8.23045e-15      115290.      340.497
       6547.5029  2.99647e-12  8.53581e-15      123950.      353.086
       6548.6035  3.13070e-12  8.72670e-15      129486.      360.938
       6549.7041  3.24170e-12  8.87910e-15      134061.      367.196
       6550.8046  3.29388e-12  8.95069e-15      136202.      370.110
       6551.9052  3.31235e-12  8.97700e-15      136952.      371.160
       6553.0058  3.33998e-12  9.01652e-15      138080.      372.756
       6554.1064  3.38627e-12  9.07775e-15      139979.      375.249
       6555.2070  3.48181e-12  9.20418e-15      143913.      380.436
       6556.3076  3.57697e-12  9.32837e-15      147831.      385.529
       6557.4082  3.64129e-12  9.41214e-15      150476.      388.957
       6558.5088  3.61740e-12  9.38178e-15      149485.      387.692
       6559.6094  3.50776e-12  9.23890e-15      144955.      381.790
       6560.7100  3.39735e-12  9.09576e-15      140402.      375.900
       6561.8106  3.29808e-12  8.96857e-15      136310.      370.672
       6562.9112  3.18886e-12  8.82238e-15      131829.      364.723
       6564.0118  3.12161e-12  8.72388e-15      129083.      360.745
       6565.1124  3.09000e-12  8.67395e-15      127818.      358.798
       6566.2130  3.06340e-12  8.63321e-15      126772.      357.265
       6567.3136  3.06734e-12  8.63557e-15      126995.      357.532
       6568.4142  3.12094e-12  8.70532e-15      129278.      360.599
       6569.5148  3.21155e-12  8.82958e-15      133103.      365.941
       6570.6154  3.32877e-12  8.98611e-15      138034.      372.627
       6571.7160  3.45834e-12  9.15473e-15      143488.      379.834
       6572.8166  3.60447e-12  9.34200e-15      149636.      387.823
       6573.9172  3.73571e-12  9.50709e-15      155167.      394.887
       6575.0178  3.80652e-12  9.59458e-15      158186.      398.719
       6576.1184  3.80136e-12  9.58768e-15      158034.      398.590
       6577.2190  3.72004e-12  9.48382e-15      154715.      394.427
       6578.3196  3.56966e-12  9.28725e-15      148519.      386.405
       6579.4202  3.34893e-12  8.99372e-15      139390.      374.340
       6580.5208  3.09151e-12  8.64019e-15      128727.      359.767
       6581.6214  2.81266e-12  8.24177e-15      117162.      343.313
       6582.7220  2.54223e-12  7.83770e-15      105939.      326.611
       6583.8226  2.28957e-12  7.43877e-15      95441.8      310.088
       6584.9232  2.05695e-12  7.05044e-15      85773.2      293.997
       6586.0238  1.84444e-12  6.67517e-15      76937.0      278.440
       6587.1244  1.63700e-12  6.28601e-15      68306.3      262.294
       6588.2250  1.45400e-12  5.92563e-15      60688.3      247.329
       6589.3256  1.29870e-12  5.60112e-15      54221.9      233.852
       6590.4262  1.16166e-12  5.29843e-15      48514.7      221.279
       6591.5268  1.03689e-12  5.00890e-15      43316.4      209.248
       6592.6274  9.25825e-13  4.73569e-15      38687.9      197.893
       6593.7280  8.35829e-13  4.50161e-15      34934.8      188.152
       6594.8286  7.50226e-13  4.26822e-15      31361.8      178.425
       6595.9292  6.74948e-13  4.05004e-15      28219.2      169.330
       6597.0298  6.12395e-13  3.85802e-15      25608.6      161.331
       6598.1303  5.55381e-13  3.67654e-15      23229.5      153.776
       6599.2309  5.03983e-13  3.50407e-15      21086.4      146.608
       6600.3315  4.58483e-13  3.34182e-15      19185.8      139.842
       6601.4321  4.20271e-13  3.20183e-15      17589.4      134.004
       6602.5327  3.85676e-13  3.07360e-15      16141.9      128.641
       6603.6333  3.53123e-13  2.94195e-15      14779.8      123.134
       6604.7339  3.27771e-13  2.83543e-15      13718.5      118.674
       6605.8345  3.07601e-13  2.74734e-15      12873.2      114.977
       6606.9351  2.87919e-13  2.65975e-15      12049.3      111.309
       6608.0357  2.69846e-13  2.57579e-15      11292.7      107.793
       6609.1363  2.52421e-13  2.49169e-15      10563.3      104.272
       6610.2369  2.38014e-13  2.41990e-15      9960.19      101.266
       6611.3375  2.21638e-13  2.33473e-15      9275.06      97.7033
       6612.4381  2.06337e-13  2.25357e-15      8634.92      94.3087
       6613.5387  1.96019e-13  2.20209e-15      8203.24      92.1558
       6614.6393  1.91681e-13  2.17452e-15      8021.86      91.0035
       6615.7399  1.86386e-13  2.14278e-15      7800.42      89.6768
       6616.8405  1.81345e-13  2.11718e-15      7590.15      88.6140
       6617.9411  1.75569e-13  2.08339e-15      7349.28      87.2100
       6619.0417  1.72291e-13  2.06646e-15      7213.01      86.5128
       6620.1423  1.73645e-13  2.07153e-15      7270.63      86.7363
       6621.2429  1.72187e-13  2.06007e-15      7210.49      86.2676
       6622.3435  1.70984e-13  2.05180e-15      7161.10      85.9327
       6623.4441  1.69409e-13  2.04254e-15      7097.20      85.5697
       6624.5447  1.69191e-13  2.04406e-15      7090.33      85.6610
       6625.6453  1.67977e-13  2.03280e-15      7042.67      85.2280
       6626.7459  1.66647e-13  2.02694e-15      6990.11      85.0217
       6627.8465  1.64232e-13  2.01277e-15      6892.24      84.4690
       6628.9471  1.63114e-13  2.00085e-15      6849.23      84.0167
       6630.0477  1.61475e-13  1.99296e-15      6784.25      83.7330
       6631.1483  1.60586e-13  1.98282e-15      6750.77      83.3543
       6632.2489  1.57364e-13  1.96897e-15      6619.42      82.8238
       6633.3495  1.54686e-13  1.95158e-15      6510.85      82.1439
       6634.4501  1.53052e-13  1.93616e-15      6446.13      81.5458
       6635.5507  1.50915e-13  1.92113e-15      6360.15      80.9640
       6636.6513  1.47959e-13  1.90917e-15      6239.49      80.5103
       6637.7519  1.44845e-13  1.88658e-15      6112.73      79.6168
       6638.8525  1.38649e-13  1.84511e-15      5855.60      77.9249
       6639.9531  1.37366e-13  1.83386e-15      5805.76      77.5079
       6641.0537  1.34967e-13  1.81884e-15      5708.61      76.9300
       6642.1543  1.30810e-13  1.78680e-15      5536.70      75.6283
       6643.2549  1.27129e-13  1.75962e-15      5384.35      74.5262
       6644.3555  1.22672e-13  1.72978e-15      5198.96      73.3095
       6645.4560  1.20262e-13  1.70673e-15      5100.12      72.3796
       6646.5566  1.16801e-13  1.68658e-15      4956.40      71.5695
       6647.6572  1.13945e-13  1.67023e-15      4838.10      70.9181
       6648.7578  1.12553e-13  1.65874e-15      4781.73      70.4706
       6649.8584  1.10885e-13  1.64741e-15      4713.54      70.0287
       6650.9590  1.08204e-13  1.62862e-15      4601.76      69.2630
       6652.0596  1.04629e-13  1.59796e-15      4451.13      67.9800
       6653.1602  1.04317e-13  1.59187e-15      4437.57      67.7166
       6654.2608  1.01106e-13  1.56589e-15      4300.69      66.6073
       6655.3614  1.00133e-13  1.56164e-15      4258.81      66.4191
       6656.4620  9.96564e-14  1.55690e-15      4238.02      66.2091
       6657.5626  1.00189e-13  1.56062e-15      4260.16      66.3595
       6658.6632  9.71916e-14  1.54036e-15      4132.19      65.4899
       6659.7638  9.41129e-14  1.51994e-15      4000.80      64.6139
       6660.8644  9.47712e-14  1.52215e-15      4027.83      64.6922
       6661.9650  9.33427e-14  1.51586e-15      3966.16      64.4092
       6663.0656  9.61652e-14  1.52513e-15      4085.09      64.7874
       6664.1662  9.49967e-14  1.51949e-15      4034.49      64.5322
       6665.2668  9.66038e-14  1.53576e-15      4101.91      65.2103
       6666.3674  9.43907e-14  1.52083e-15      4007.37      64.5669
       6667.4680  9.43527e-14  1.52305e-15      4005.19      64.6523
       6668.5686  9.61294e-14  1.52987e-15      4080.03      64.9324
       6669.6692  9.68829e-14  1.54195e-15      4111.53      65.4374
       6670.7698  9.79893e-14  1.55057e-15      4156.71      65.7753
       6671.8704  9.84979e-14  1.54907e-15      4176.56      65.6844
       6672.9710  9.74245e-14  1.55014e-15      4128.95      65.6966
       6674.0716  9.80457e-14  1.55334e-15      4152.86      65.7939
       6675.1722  1.00659e-13  1.56463e-15      4261.93      66.2467
       6676.2728  1.01827e-13  1.57502e-15      4311.37      66.6863
       6677.3734  1.00022e-13  1.56499e-15      4234.93      66.2616
       6678.4740  1.03768e-13  1.58728e-15      4393.49      67.2051
       6679.5746  1.05146e-13  1.60346e-15      4451.82      67.8897
       6680.6752  1.05507e-13  1.60551e-15      4467.10      67.9759
       6681.7758  1.03439e-13  1.59496e-15      4378.95      67.5204
       6682.8764  1.05444e-13  1.60944e-15      4463.07      68.1218
       6683.9770  1.05564e-13  1.59806e-15      4467.21      67.6259
       6685.0776  1.02323e-13  1.58562e-15      4328.71      67.0787
       6686.1782  1.00141e-13  1.57383e-15      4234.44      66.5491
       6687.2788  1.04686e-13  1.59843e-15      4424.58      67.5580
       6688.3794  1.02913e-13  1.58079e-15      4347.61      66.7812
       6689.4800  1.02595e-13  1.58922e-15      4331.99      67.1032
       6690.5806  1.04825e-13  1.59717e-15      4423.85      67.4041
       6691.6812  1.02972e-13  1.58770e-15      4343.36      66.9694
       6692.7817  1.00665e-13  1.57760e-15      4243.85      66.5088
       6693.8823  1.00574e-13  1.57100e-15      4239.25      66.2183
       6694.9829  1.02689e-13  1.57966e-15      4327.65      66.5718
       6696.0835  9.82851e-14  1.55058e-15      4141.51      65.3380
       6697.1841  9.92488e-14  1.55661e-15      4181.79      65.5868
       6698.2847  9.92387e-14  1.56215e-15      4180.42      65.8055
       6699.3853  9.85213e-14  1.55295e-15      4149.24      65.4026
       6700.4859  9.85171e-14  1.55519e-15      4147.95      65.4797
       6701.5865  9.81349e-14  1.55560e-15      4130.85      65.4810
       6702.6871  9.69235e-14  1.54942e-15      4078.92      65.2055
       6703.7877  9.96456e-14  1.56074e-15      4192.52      65.6670
       6704.8883  1.00075e-13  1.57038e-15      4210.14      66.0659
       6705.9889  9.84070e-14  1.55218e-15      4139.73      65.2961
       6707.0895  9.90482e-14  1.55781e-15      4166.60      65.5312
       6708.1901  1.00593e-13  1.57464e-15      4231.91      66.2444
       6709.2907  9.71593e-14  1.54553e-15      4088.40      65.0349
       6710.3913  9.83459e-14  1.55222e-15      4139.29      65.3317
       6711.4919  9.52783e-14  1.53836e-15      4011.13      64.7635
       6712.5925  9.67334e-14  1.54016e-15      4073.51      64.8573
       6713.6931  9.43805e-14  1.52126e-15      3975.56      64.0796
       6714.7937  9.41875e-14  1.52112e-15      3968.57      64.0919
       6715.8943  9.27264e-14  1.52863e-15      3908.13      64.4270
       6716.9949  9.08908e-14  1.51397e-15      3831.87      63.8274
       6718.0955  8.94345e-14  1.49377e-15      3771.55      62.9938
       6719.1961  8.59780e-14  1.45832e-15      3627.07      61.5208
       6720.2967  8.89773e-14  1.47268e-15      3755.37      62.1558
       6721.3973  8.70581e-14  1.46403e-15      3676.63      61.8287
       6722.4979  8.77328e-14  1.47104e-15      3707.44      62.1638
       6723.5985  8.89456e-14  1.47570e-15      3761.18      62.4019
       6724.6991  8.90616e-14  1.47285e-15      3768.58      62.3227
       6725.7997  8.87019e-14  1.46998e-15      3755.85      62.2422
       6726.9003  8.93157e-14  1.47582e-15      3784.34      62.5311
       6728.0009  9.11471e-14  1.49261e-15      3864.58      63.2859
       6729.1015  9.10730e-14  1.49704e-15      3863.93      63.5145
       6730.2021  9.07387e-14  1.51043e-15      3852.09      64.1214
       6731.3027  9.16750e-14  1.50652e-15      3894.18      63.9941
       6732.4033  9.12494e-14  1.49881e-15      3878.43      63.7048
       6733.5039  9.53996e-14  1.52164e-15      4057.27      64.7141
       6734.6045  9.49416e-14  1.52006e-15      4040.23      64.6859
       6735.7051  9.80467e-14  1.54691e-15      4174.88      65.8681
       6736.8057  9.96700e-14  1.55592e-15      4245.68      66.2781
       6737.9063  1.02010e-13  1.56916e-15      4346.18      66.8545
       6739.0068  1.02182e-13  1.56795e-15      4354.11      66.8122
       6740.1074  1.02180e-13  1.57390e-15      4354.59      67.0750
       6741.2080  1.01410e-13  1.56746e-15      4322.32      66.8091
       6742.3086  1.02834e-13  1.58111e-15      4383.26      67.3944
       6743.4092  1.03213e-13  1.58755e-15      4399.60      67.6714
       6744.5098  1.03342e-13  1.58108e-15      4405.12      67.3963
       6745.6104  1.04524e-13  1.58691e-15      4454.22      67.6247
       6746.7110  1.04793e-13  1.59236e-15      4464.29      67.8362
       6747.8116  1.05617e-13  1.60842e-15      4498.03      68.4992
       6748.9122  1.06592e-13  1.60550e-15      4538.16      68.3539
       6750.0128  1.08066e-13  1.61773e-15      4599.46      68.8534
       6751.1134  1.08909e-13  1.62355e-15      4633.87      69.0791
       6752.2140  1.05800e-13  1.60118e-15      4500.49      68.1105
       6753.3146  1.06383e-13  1.61136e-15      4524.33      68.5291
       6754.4152  1.08849e-13  1.62423e-15      4628.26      69.0623
       6755.5158  1.08341e-13  1.62170e-15      4605.74      68.9407
       6756.6164  1.07188e-13  1.61907e-15      4555.79      68.8148
       6757.7170  1.09992e-13  1.63799e-15      4674.00      69.6045
       6758.8176  1.08393e-13  1.62516e-15      4605.09      69.0453
       6759.9182  1.08465e-13  1.62598e-15      4608.18      69.0804
       6761.0188  1.09826e-13  1.62931e-15      4667.02      69.2369
       6762.1194  1.10731e-13  1.63996e-15      4706.73      69.7079
       6763.2200  1.09837e-13  1.63276e-15      4669.97      69.4206
       6764.3206  1.09710e-13  1.62915e-15      4665.89      69.2864
       6765.4212  1.12224e-13  1.64547e-15      4774.50      70.0055
       6766.5218  1.11798e-13  1.64229e-15      4758.12      69.8958
       6767.6224  1.11159e-13  1.64267e-15      4732.79      69.9398
       6768.7230  1.10866e-13  1.63882e-15      4723.65      69.8251
       6769.8236  1.11195e-13  1.63687e-15      4741.09      69.7922
       6770.9242  1.08964e-13  1.62547e-15      4649.32      69.3560
       6772.0248  1.10727e-13  1.63968e-15      4728.14      70.0157
       6773.1254  1.09476e-13  1.62400e-15      4678.56      69.4030
       6774.2260  1.11173e-13  1.63013e-15      4755.00      69.7227
       6775.3266  1.08762e-13  1.61408e-15      4655.23      69.0860
       6776.4272  1.07755e-13  1.60823e-15      4615.46      68.8851
       6777.5278  1.07425e-13  1.60568e-15      4604.61      68.8251
       6778.6284  1.07978e-13  1.60710e-15      4631.25      68.9294
       6779.7290  1.08898e-13  1.61565e-15      4673.66      69.3396
       6780.8296  1.09247e-13  1.62578e-15      4691.60      69.8187
       6781.9302  1.08388e-13  1.61183e-15      4657.63      69.2634
       6783.0308  1.06510e-13  1.59944e-15      4579.82      68.7744
       6784.1314  1.06892e-13  1.60471e-15      4598.08      69.0284
       6785.2320  1.07371e-13  1.60032e-15      4619.90      68.8575
       6786.3325  1.06178e-13  1.59361e-15      4569.75      68.5868
       6787.4331  1.06200e-13  1.59809e-15      4571.88      68.7974
       6788.5337  1.05888e-13  1.59194e-15      4558.82      68.5385
       6789.6343  1.06513e-13  1.59972e-15      4585.51      68.8696
       6790.7349  1.06651e-13  1.60152e-15      4590.44      68.9322
       6791.8355  1.05937e-13  1.59461e-15      4558.38      68.6148
       6792.9361  1.07200e-13  1.60226e-15      4611.39      68.9239
       6794.0367  1.07106e-13  1.59850e-15      4606.02      68.7422
       6795.1373  1.05707e-13  1.59231e-15      4544.33      68.4534
       6796.2379  1.05761e-13  1.59339e-15      4544.85      68.4727
       6797.3385  1.07308e-13  1.60623e-15      4609.50      68.9972
       6798.4391  1.07489e-13  1.60397e-15      4615.92      68.8800
       6799.5397  1.05188e-13  1.58871e-15      4515.81      68.2043
       6800.6403  1.03982e-13  1.58158e-15      4462.75      67.8789
       6801.7409  1.05647e-13  1.59132e-15      4533.50      68.2862
       6802.8415  1.03832e-13  1.57935e-15      4454.95      67.7622
       6803.9421  1.01980e-13  1.57218e-15      4374.83      67.4446
       6805.0427  1.02944e-13  1.57836e-15      4414.71      67.6874
       6806.1433  1.02668e-13  1.57224e-15      4401.44      67.4030
       6807.2439  1.00375e-13  1.55585e-15      4302.80      66.6946
       6808.3445  1.02804e-13  1.57323e-15      4407.13      67.4431
       6809.4451  1.02192e-13  1.56787e-15      4381.10      67.2169
       6810.5457  1.01386e-13  1.56042e-15      4346.77      66.9007
       6811.6463  1.02576e-13  1.56990e-15      4398.84      67.3229
       6812.7469  1.03022e-13  1.57678e-15      4419.60      67.6434
       6813.8475  1.02046e-13  1.57218e-15      4379.33      67.4703
       6814.9481  1.02562e-13  1.57108e-15      4403.05      67.4472
       6816.0487  1.02984e-13  1.57239e-15      4422.46      67.5233
       6817.1493  9.99047e-14  1.55289e-15      4291.35      66.7035
       6818.2499  1.01391e-13  1.56592e-15      4356.28      67.2804
       6819.3505  1.03356e-13  1.57786e-15      4441.70      67.8082
       6820.4511  1.01673e-13  1.55953e-15      4370.22      67.0337
       6821.5517  1.00787e-13  1.55436e-15      4332.87      66.8222
       6822.6523  1.00794e-13  1.55827e-15      4332.19      66.9756
       6823.7529  1.01345e-13  1.56179e-15      4352.98      67.0819
       6824.8535  1.02611e-13  1.56999e-15      4403.13      67.3700
       6825.9541  1.03762e-13  1.58541e-15      4447.35      67.9522
       6827.0547  1.03711e-13  1.59504e-15      4438.97      68.2699
       6828.1553  1.02167e-13  1.59322e-15      4367.60      68.1096
       6829.2559  1.01849e-13  1.59952e-15      4348.71      68.2961
       6830.3565  1.02192e-13  1.59887e-15      4358.07      68.1852
       6831.4571  1.02334e-13  1.58707e-15      4358.78      67.5992
       6832.5577  1.02942e-13  1.59065e-15      4379.30      67.6688
       6833.6582  1.01281e-13  1.59396e-15      4303.32      67.7259
       6834.7588  1.01071e-13  1.59869e-15      4288.75      67.8375
       6835.8594  9.97278e-14  1.58106e-15      4226.15      67.0004
       6836.9600  9.64614e-14  1.54860e-15      4082.66      65.5434
       6838.0606  9.73876e-14  1.54992e-15      4116.50      65.5142
       6839.1612  9.75604e-14  1.54866e-15      4118.65      65.3791
       6840.2618  9.72698e-14  1.54691e-15      4101.13      65.2213
       6841.3624  9.69629e-14  1.54803e-15      4082.73      65.1814
       6842.4630  9.65237e-14  1.54873e-15      4057.44      65.1018
       6843.5636  9.47975e-14  1.53420e-15      3978.20      64.3830
       6844.6642  9.63943e-14  1.54627e-15      4038.52      64.7821
       6845.7648  9.60698e-14  1.54860e-15      4019.72      64.7959
       6846.8654  9.33607e-14  1.52231e-15      3902.99      63.6410
       6847.9660  9.41603e-14  1.52424e-15      3933.98      63.6821
       6849.0666  9.25133e-14  1.51898e-15      3863.36      63.4328
       6850.1672  9.22797e-14  1.51987e-15      3852.19      63.4466
       6851.2678  9.20804e-14  1.52369e-15      3841.33      63.5639
       6852.3684  9.24579e-14  1.52588e-15      3851.15      63.5576
       6853.4690  9.29195e-14  1.52661e-15      3857.00      63.3682
       6854.5696  8.99990e-14  1.51005e-15      3712.18      62.2851
       6855.6702  9.06725e-14  1.52361e-15      3714.36      62.4139
       6856.7708  9.29313e-14  1.53858e-15      3780.66      62.5928
       6857.8714  9.30642e-14  1.54568e-15      3760.05      62.4497
       6858.9720  9.10922e-14  1.53995e-15      3654.92      61.7877
       6860.0726  9.22622e-14  1.55726e-15      3676.10      62.0475
       6861.1732  9.19501e-14  1.57248e-15      3638.33      62.2206
       6862.2738  9.25339e-14  1.59610e-15      3635.95      62.7160
       6863.3744  9.35594e-14  1.62771e-15      3650.67      63.5129
       6864.4750  8.65981e-14  1.56951e-15      3355.58      60.8168
       6865.5756  6.51237e-14  1.34776e-15      2506.82      51.8797
       6866.6762  5.83774e-14  1.27180e-15      2232.25      48.6313
       6867.7768  5.15394e-14  1.18862e-15      1957.63      45.1476
       6868.8774  5.15748e-14  1.18220e-15      1945.86      44.6033
       6869.9780  6.56187e-14  1.34843e-15      2459.13      50.5337
       6871.0786  6.93461e-14  1.40196e-15      2581.38      52.1876
       6872.1792  7.16073e-14  1.42206e-15      2647.75      52.5821
       6873.2798  7.34462e-14  1.44748e-15      2697.81      53.1685
       6874.3804  7.73886e-14  1.48250e-15      2824.74      54.1124
       6875.4810  8.13728e-14  1.52475e-15      2954.49      55.3606
       6876.5816  8.37180e-14  1.54398e-15      3030.24      55.8858
       6877.6822  8.63705e-14  1.56678e-15      3126.92      56.7228
       6878.7828  8.81386e-14  1.59038e-15      3193.36      57.6215
       6879.8834  8.91660e-14  1.60350e-15      3233.06      58.1413
       6880.9839  9.29734e-14  1.64438e-15      3373.70      59.6689
       6882.0845  9.66765e-14  1.66878e-15      3510.76      60.6010
       6883.1851  9.53008e-14  1.65434e-15      3463.45      60.1226
       6884.2857  9.02866e-14  1.61042e-15      3283.74      58.5715
       6885.3863  9.15474e-14  1.61157e-15      3332.16      58.6580
       6886.4869  8.52823e-14  1.55827e-15      3106.50      56.7616
       6887.5875  8.56227e-14  1.56190e-15      3121.30      56.9378
       6888.6881  8.55767e-14  1.56297e-15      3122.42      57.0277
       6889.7887  8.45589e-14  1.56198e-15      3089.13      57.0627
       6890.8893  8.63233e-14  1.56919e-15      3158.05      57.4072
       6891.9899  8.89447e-14  1.58614e-15      3259.18      58.1206
       6893.0905  8.88615e-14  1.58200e-15      3261.97      58.0729
       6894.1911  9.29240e-14  1.62291e-15      3418.10      59.6967
       6895.2917  9.18290e-14  1.61283e-15      3385.49      59.4608
       6896.3923  8.53713e-14  1.55560e-15      3154.93      57.4876
       6897.4929  8.80150e-14  1.57082e-15      3260.45      58.1898
       6898.5935  9.01836e-14  1.59131e-15      3349.36      59.1000
       6899.6941  9.07315e-14  1.60174e-15      3378.59      59.6443
       6900.7947  8.78920e-14  1.57122e-15      3283.52      58.6986
       6901.8953  9.04502e-14  1.58757e-15      3390.07      59.5022
       6902.9959  9.33953e-14  1.59900e-15      3511.82      60.1249
       6904.0965  8.70443e-14  1.55489e-15      3283.61      58.6561
       6905.1971  8.85132e-14  1.55593e-15      3349.83      58.8848
       6906.2977  8.92840e-14  1.57031e-15      3389.91      59.6212
       6907.3983  9.04323e-14  1.58134e-15      3444.58      60.2335
       6908.4989  8.81846e-14  1.55583e-15      3369.95      59.4555
       6909.5995  8.88528e-14  1.55516e-15      3407.14      59.6339
       6910.7001  9.18629e-14  1.59354e-15      3534.62      61.3150
       6911.8007  9.36625e-14  1.59020e-15      3615.75      61.3882
       6912.9013  9.05364e-14  1.57519e-15      3505.40      60.9885
       6914.0019  8.81822e-14  1.54838e-15      3423.77      60.1174
       6915.1025  8.91441e-14  1.54229e-15      3470.13      60.0371
       6916.2031  9.53859e-14  1.59123e-15      3724.60      62.1341
       6917.3037  9.03556e-14  1.54069e-15      3539.70      60.3568
       6918.4043  9.12620e-14  1.54608e-15      3586.21      60.7546
       6919.5049  8.83805e-14  1.53111e-15      3483.28      60.3444
       6920.6055  8.78742e-14  1.52979e-15      3473.57      60.4709
       6921.7061  8.98787e-14  1.55264e-15      3562.99      61.5500
       6922.8067  8.83587e-14  1.55050e-15      3512.98      61.6452
       6923.9073  9.02182e-14  1.54970e-15      3595.27      61.7567
       6925.0079  9.11797e-14  1.54702e-15      3642.05      61.7936
       6926.1085  8.93647e-14  1.52869e-15      3577.85      61.2033
       6927.2091  8.79658e-14  1.51090e-15      3530.04      60.6318
       6928.3096  8.58454e-14  1.48742e-15      3452.94      59.8284
       6929.4102  8.51650e-14  1.46982e-15      3460.76      59.7274
       6930.5108  8.45371e-14  1.47903e-15      3438.36      60.1563
       6931.6114  8.50104e-14  1.46684e-15      3461.74      59.7315
       6932.7120  8.75655e-14  1.49260e-15      3573.29      60.9084
       6933.8126  8.55171e-14  1.46930e-15      3502.16      60.1719
       6934.9132  8.47447e-14  1.46422e-15      3473.28      60.0116
       6936.0138  8.05564e-14  1.42805e-15      3304.25      58.5753
       6937.1144  7.69112e-14  1.41187e-15      3157.24      57.9578
       6938.2150  1.05098e-13  1.65940e-15      4317.75      68.1736
       6939.3156      0.00000  1.45929e-16      0.00000      6.00000
