# N Sco 2012
# 2012-07-03T00:01:37.200
# 
#     Wavelength       Flux    Uncertainty       Counts  Uncertainty
# 
       3649.1622  2.93174e-14  2.50774e-15      283.252      24.2287
       3650.6390  3.18106e-14  2.57261e-15      308.065      24.9140
       3652.1157  3.36617e-14  2.67481e-15      326.762      25.9650
       3653.5925  3.53901e-14  2.69238e-15      344.350      26.1972
       3655.0692  3.65476e-14  2.76818e-15      356.453      26.9984
       3656.5459  3.91429e-14  2.81510e-15      382.667      27.5208
       3658.0227  5.49680e-14  4.16826e-15      358.158      27.1594
       3659.4994  7.67802e-14  5.41935e-15      391.784      27.6531
       3660.9761  7.45988e-14  5.38988e-15      381.553      27.5678
       3662.4529  6.60053e-14  5.18606e-15      338.398      26.5881
       3663.9296  4.64682e-14  3.95246e-15      305.091      25.9502
       3665.4063  4.86026e-14  4.07861e-15      308.832      25.9164
       3666.8831  4.55381e-14  4.14141e-15      279.689      25.4360
       3668.3598  4.23924e-14  4.17847e-15      251.322      24.7719
       3669.8366  4.55070e-14  4.34772e-15      260.027      24.8429
       3671.3133  5.52049e-14  4.71347e-15      303.545      25.9171
       3672.7900  5.27211e-14  4.89620e-15      278.471      25.8615
       3674.2668  5.80211e-14  5.01167e-15      303.152      26.1852
       3675.7435  6.73110e-14  5.14228e-15      352.525      26.9314
       3677.2202  7.97214e-14  5.32838e-15      418.512      27.9723
       3678.6970  9.05849e-14  5.49933e-15      477.006      28.9586
       3680.1737  9.65663e-14  5.56432e-15      510.340      29.4067
       3681.6504  9.34514e-14  5.56866e-15      495.787      29.5434
       3683.1272  9.40902e-14  5.61060e-15      501.288      29.8918
       3684.6039  9.65348e-14  5.57813e-15      516.857      29.8658
       3686.0807  1.00509e-13  5.62736e-15      541.204      30.3012
       3687.5574  1.02679e-13  5.69658e-15      556.277      30.8621
       3689.0341  9.30574e-14  5.53777e-15      507.341      30.1915
       3690.5109  8.81329e-14  5.49381e-15      483.659      30.1491
       3691.9876  8.01948e-14  5.35605e-15      443.182      29.5992
       3693.4643  7.32640e-14  5.20581e-15      407.896      28.9832
       3694.9411  6.98445e-14  5.12253e-15      391.878      28.7411
       3696.4178  6.76099e-14  5.07331e-15      382.346      28.6904
       3697.8945  7.54754e-14  5.20389e-15      430.225      29.6632
       3699.3713  7.52284e-14  5.18487e-15      432.242      29.7908
       3700.8480  6.79751e-14  5.00118e-15      393.737      28.9687
       3702.3247  7.38036e-14  5.00311e-15      431.138      29.2266
       3703.8015  8.20181e-14  5.01551e-15      483.510      29.5672
       3705.2782  8.46666e-14  4.97160e-15      503.810      29.5836
       3706.7550  8.54588e-14  4.98399e-15      513.481      29.9464
       3708.2317  8.62515e-14  5.00843e-15      523.430      30.3943
       3709.7084  8.16710e-14  4.97574e-15      500.430      30.4883
       3711.1852  8.54265e-14  5.08997e-15      528.559      31.4931
       3712.6619  8.99641e-14  5.17790e-15      562.452      32.3720
       3714.1386  9.25901e-14  5.18655e-15      585.050      32.7723
       3715.6154  8.91023e-14  5.06542e-15      568.683      32.3294
       3717.0921  8.99471e-14  4.95672e-15      579.538      31.9367
       3718.5688  8.68910e-14  4.76315e-15      564.951      30.9692
       3720.0456  8.26977e-14  4.61128e-15      542.623      30.2570
       3721.5223  8.31066e-14  4.61708e-15      550.184      30.5661
       3722.9991  7.75705e-14  4.56949e-15      517.965      30.5121
       3724.4758  7.40060e-14  4.55742e-15      498.496      30.6983
       3725.9525  7.16163e-14  4.51115e-15      486.837      30.6661
       3727.4293  7.05072e-14  4.46937e-15      483.895      30.6735
       3728.9060  7.53915e-14  4.49818e-15      522.339      31.1650
       3730.3827  8.12248e-14  4.51919e-15      568.087      31.6073
       3731.8595  8.07391e-14  4.41192e-15      569.984      31.1463
       3733.3362  8.44107e-14  4.34232e-15      601.403      30.9378
       3734.8129  8.88140e-14  4.35689e-15      638.230      31.3092
       3736.2897  8.49359e-14  4.31163e-15      615.329      31.2362
       3737.7664  8.64794e-14  4.42343e-15      631.349      32.2935
       3739.2432  8.94227e-14  4.48820e-15      658.330      33.0421
       3740.7199  8.25509e-14  4.39061e-15      613.405      32.6250
       3742.1966  7.15065e-14  4.15130e-15      536.590      31.1517
       3743.6734  6.69944e-14  3.97231e-15      507.611      30.0979
       3745.1501  5.76037e-14  3.70639e-15      440.462      28.3406
       3746.6268  5.68409e-14  3.65890e-15      438.560      28.2305
       3748.1036  6.14258e-14  3.70179e-15      478.169      28.8166
       3749.5803  7.22536e-14  3.94570e-15      567.482      30.9897
       3751.0570  8.73435e-14  4.28099e-15      691.997      33.9171
       3752.5338  1.02777e-13  4.58084e-15      821.330      36.6071
       3754.0105  1.14794e-13  4.75707e-15      925.439      38.3504
       3755.4873  1.19390e-13  4.77975e-15      970.536      38.8553
       3756.9640  1.25326e-13  4.73032e-15      1026.62      38.7488
       3758.4407  1.30974e-13  4.74019e-15      1080.54      39.1068
       3759.9175  1.32941e-13  4.76555e-15      1104.82      39.6044
       3761.3942  1.38670e-13  4.87798e-15      1161.27      40.8498
       3762.8709  1.29264e-13  4.72124e-15      1091.28      39.8578
       3764.3477  1.31152e-13  4.75464e-15      1116.70      40.4836
       3765.8244  1.42441e-13  4.85832e-15      1223.46      41.7293
       3767.3011  1.36161e-13  4.74731e-15      1179.80      41.1342
       3768.7779  1.40090e-13  4.78851e-15      1224.47      41.8547
       3770.2546  1.28770e-13  4.66155e-15      1134.53      41.0705
       3771.7314  1.26335e-13  4.66571e-15      1120.75      41.3908
       3773.2081  1.23477e-13  4.61243e-15      1101.88      41.1600
       3774.6848  1.14707e-13  4.50711e-15      1029.06      40.4343
       3776.1616  1.12652e-13  4.48375e-15      1016.02      40.4396
       3777.6383  1.14744e-13  4.47214e-15      1040.57      40.5562
       3779.1150  9.57515e-14  4.24358e-15      873.083      38.6939
       3780.5918  9.76347e-14  4.30652e-15      895.071      39.4802
       3782.0685  9.03184e-14  4.19079e-15      832.847      38.6443
       3783.5452  8.13351e-14  4.00812e-15      754.635      37.1877
       3785.0220  7.36730e-14  3.83954e-15      687.763      35.8434
       3786.4987  7.54190e-14  3.78058e-15      708.428      35.5119
       3787.9754  7.91869e-14  3.76934e-15      748.477      35.6280
       3789.4522  8.03096e-14  3.77801e-15      763.902      35.9363
       3790.9289  8.46035e-14  3.84554e-15      809.715      36.8045
       3792.4057  8.18480e-14  3.78677e-15      787.947      36.4550
       3793.8824  7.74034e-14  3.67411e-15      749.327      35.5683
       3795.3591  7.53510e-14  3.60065e-15      733.290      35.0403
       3796.8359  7.26891e-14  3.52361e-15      711.048      34.4681
       3798.3126  7.34134e-14  3.54833e-15      721.767      34.8855
       3799.7893  6.89467e-14  3.52295e-15      681.259      34.8101
       3801.2661  6.50224e-14  3.52030e-15      645.586      34.9519
       3802.7428  6.58849e-14  3.54071e-15      657.478      35.3334
       3804.2195  6.77744e-14  3.56178e-15      680.240      35.7490
       3805.6963  6.85982e-14  3.56643e-15      693.042      36.0313
       3807.1730  7.09666e-14  3.59256e-15      722.119      36.5560
       3808.6498  6.80038e-14  3.52679e-15      697.048      36.1500
       3810.1265  7.11034e-14  3.53849e-15      734.169      36.5362
       3811.6032  7.01727e-14  3.46428e-15      729.954      36.0364
       3813.0800  6.95970e-14  3.40433e-15      729.145      35.6661
       3814.5567  7.23145e-14  3.40295e-15      762.875      35.8990
       3816.0334  7.25803e-14  3.37817e-15      770.793      35.8757
       3817.5102  7.16589e-14  3.34207e-15      765.978      35.7242
       3818.9869  6.51061e-14  3.20853e-15      700.394      34.5164
       3820.4636  6.73409e-14  3.18592e-15      728.988      34.4886
       3821.9404  6.35241e-14  3.10471e-15      691.920      33.8172
       3823.4171  6.29172e-14  3.07105e-15      689.513      33.6558
       3824.8939  6.62136e-14  3.05603e-15      729.924      33.6890
       3826.3706  7.24768e-14  3.14869e-15      803.435      34.9046
       3827.8473  7.91926e-14  3.23118e-15      882.633      36.0128
       3829.3241  8.62586e-14  3.32270e-15      966.521      37.2306
       3830.8008  8.73646e-14  3.33038e-15      984.114      37.5149
       3832.2775  9.61500e-14  3.42806e-15      1088.79      38.8191
       3833.7543  1.01580e-13  3.49118e-15      1156.23      39.7380
       3835.2310  1.02931e-13  3.52046e-15      1177.29      40.2660
       3836.7077  1.04958e-13  3.52676e-15      1205.61      40.5105
       3838.1845  1.08499e-13  3.55324e-15      1250.99      40.9690
       3839.6612  1.13183e-13  3.62931e-15      1309.68      41.9961
       3841.1380  1.11739e-13  3.66528e-15      1297.55      42.5623
       3842.6147  1.09791e-13  3.67018e-15      1279.38      42.7682
       3844.0914  1.03611e-13  3.62668e-15      1211.55      42.4076
       3845.5682  1.00393e-13  3.57933e-15      1178.02      42.0001
       3847.0449  9.20050e-14  3.46718e-15      1083.65      40.8371
       3848.5216  8.69251e-14  3.38953e-15      1027.97      40.0843
       3849.9984  8.55667e-14  3.35569e-15      1016.18      39.8516
       3851.4751  7.87936e-14  3.26919e-15      939.630      38.9858
       3852.9518  7.62308e-14  3.21571e-15      912.844      38.5074
       3854.4286  7.53608e-14  3.15919e-15      906.169      37.9874
       3855.9053  7.57013e-14  3.12937e-15      914.071      37.7863
       3857.3821  7.99023e-14  3.16203e-15      968.924      38.3439
       3858.8588  8.14665e-14  3.16943e-15      992.166      38.5999
       3860.3355  8.33332e-14  3.21778e-15      1019.31      39.3589
       3861.8123  8.06807e-14  3.22560e-15      991.192      39.6277
       3863.2890  8.00230e-14  3.24395e-15      986.978      40.0098
       3864.7657  8.08532e-14  3.24299e-15      1000.79      40.1413
       3866.2425  8.09186e-14  3.22179e-15      1005.39      40.0298
       3867.7192  8.14288e-14  3.18750e-15      1015.96      39.7694
       3869.1959  7.75764e-14  3.10562e-15      972.244      38.9219
       3870.6727  7.47639e-14  3.05091e-15      941.288      38.4113
       3872.1494  7.34011e-14  3.02871e-15      928.354      38.3062
       3873.6262  6.94645e-14  2.99477e-15      882.482      38.0457
       3875.1029  6.59890e-14  2.96274e-15      841.887      37.7986
       3876.5796  6.69469e-14  2.94559e-15      857.531      37.7305
       3878.0564  7.08734e-14  2.96762e-15      911.280      38.1573
       3879.5331  7.79656e-14  3.04998e-15      1006.03      39.3555
       3881.0098  7.67971e-14  3.03193e-15      994.320      39.2555
       3882.4866  7.44998e-14  2.97757e-15      968.414      38.7051
       3883.9633  7.02117e-14  2.91768e-15      916.898      38.1022
       3885.4400  6.47620e-14  2.83897e-15      849.584      37.2431
       3886.9168  6.59072e-14  2.83819e-15      868.562      37.4033
       3888.3935  7.18634e-14  2.93144e-15      951.496      38.8132
       3889.8702  7.54550e-14  3.01069e-15      1003.73      40.0493
       3891.3470  8.05891e-14  3.10270e-15      1077.40      41.4803
       3892.8237  8.59645e-14  3.17214e-15      1154.95      42.6183
       3894.3005  8.72230e-14  3.18800e-15      1177.60      43.0414
       3895.7772  8.55684e-14  3.17218e-15      1160.91      43.0370
       3897.2539  8.16204e-14  3.11996e-15      1112.15      42.5123
       3898.7307  7.86377e-14  3.05765e-15      1075.54      41.8200
       3900.2074  8.00180e-14  3.06230e-15      1098.06      42.0228
       3901.6841  8.77953e-14  3.15803e-15      1208.50      43.4703
       3903.1609  9.90621e-14  3.26944e-15      1368.26      45.1578
       3904.6376  1.07898e-13  3.35912e-15      1495.43      46.5562
       3906.1143  1.11251e-13  3.41205e-15      1547.16      47.4515
       3907.5911  1.14135e-13  3.46656e-15      1593.11      48.3867
       3909.0678  1.09213e-13  3.42596e-15      1529.93      47.9933
       3910.5446  9.08122e-14  3.21726e-15      1276.75      45.2322
       3912.0213  7.62726e-14  3.05244e-15      1076.59      43.0854
       3913.4980  5.97044e-14  2.80885e-15      846.124      39.8067
       3914.9748  4.83273e-14  2.62129e-15      687.584      37.2948
       3916.4515  4.13616e-14  2.49015e-15      590.792      35.5683
       3917.9282  4.13615e-14  2.44791e-15      593.111      35.1022
       3919.4050  5.25125e-14  2.58896e-15      755.980      37.2711
       3920.8817  7.13115e-14  2.82098e-15      1030.69      40.7724
       3922.3584  9.96448e-14  3.16924e-15      1445.46      45.9734
       3923.8352  1.23796e-13  3.41120e-15      1802.75      49.6748
       3925.3119  1.42772e-13  3.56271e-15      2087.16      52.0827
       3926.7887  1.52994e-13  3.61718e-15      2245.35      53.0860
       3928.2654  1.54236e-13  3.57327e-15      2272.41      52.6461
       3929.7421  1.46646e-13  3.44641e-15      2168.99      50.9747
       3931.2189  1.24770e-13  3.16358e-15      1852.59      46.9732
       3932.6956  1.16739e-13  3.04420e-15      1740.06      45.3757
       3934.1723  1.27215e-13  3.17763e-15      1902.83      47.5298
       3935.6491  1.40821e-13  3.35826e-15      2113.64      50.4053
       3937.1258  1.57116e-13  3.56050e-15      2366.38      53.6260
       3938.6025  1.56766e-13  3.58833e-15      2369.12      54.2284
       3940.0793  1.57214e-13  3.60945e-15      2384.15      54.7373
       3941.5560  1.49480e-13  3.55126e-15      2275.10      54.0506
       3943.0328  1.38942e-13  3.44704e-15      2121.85      52.6413
       3944.5095  1.19962e-13  3.27368e-15      1837.23      50.1367
       3945.9862  9.61695e-14  3.04823e-15      1476.76      46.8082
       3947.4630  6.72192e-14  2.71631e-15      1035.32      41.8369
       3948.9397  5.02855e-14  2.49596e-15      776.921      38.5630
       3950.4164  3.60995e-14  2.31080e-15      559.357      35.8056
       3951.8932  3.59293e-14  2.27368e-15      558.305      35.3306
       3953.3699  3.77169e-14  2.30828e-15      587.755      35.9708
       3954.8466  4.12933e-14  2.36008e-15      645.188      36.8751
       3956.3234  6.24538e-14  2.63070e-15      978.406      41.2128
       3957.8001  7.95963e-14  2.85288e-15      1250.36      44.8151
       3959.2769  9.86684e-14  3.02342e-15      1554.24      47.6254
       3960.7536  1.19156e-13  3.18993e-15      1882.17      50.3877
       3962.2303  1.18077e-13  3.13259e-15      1870.31      49.6193
       3963.7071  1.21804e-13  3.13661e-15      1934.69      49.8206
       3965.1838  1.18281e-13  3.04998e-15      1884.23      48.5864
       3966.6605  1.15442e-13  2.95841e-15      1844.40      47.2661
       3968.1373  1.22333e-13  3.02104e-15      1960.46      48.4142
       3969.6140  1.36132e-13  3.19087e-15      2187.96      51.2847
       3971.0907  1.53288e-13  3.39052e-15      2470.99      54.6549
       3972.5675  1.63562e-13  3.52747e-15      2644.70      57.0371
       3974.0442  1.75732e-13  3.66722e-15      2849.89      59.4722
       3975.5210  1.71618e-13  3.66714e-15      2791.20      59.6426
       3976.9977  1.65218e-13  3.64585e-15      2693.95      59.4470
       3978.4744  1.58317e-13  3.60197e-15      2587.08      58.8604
       3979.9512  1.45735e-13  3.50709e-15      2386.27      57.4252
       3981.4279  1.36672e-13  3.42001e-15      2242.38      56.1120
       3982.9046  1.26818e-13  3.31726e-15      2084.77      54.5326
       3984.3814  1.10805e-13  3.16231e-15      1825.00      52.0845
       3985.8581  1.05842e-13  3.11616e-15      1746.58      51.4220
       3987.3348  9.90446e-14  3.05895e-15      1637.44      50.5718
       3988.8116  9.13985e-14  2.98220e-15      1513.70      49.3899
       3990.2883  8.80492e-14  2.94578e-15      1460.73      48.8704
       3991.7650  8.43433e-14  2.90570e-15      1401.64      48.2876
       3993.2418  8.47615e-14  2.89892e-15      1410.98      48.2568
       3994.7185  8.49284e-14  2.89029e-15      1416.16      48.1950
       3996.1953  8.44926e-14  2.87471e-15      1411.44      48.0218
       3997.6720  8.21204e-14  2.85509e-15      1374.99      47.8045
       3999.1487  7.61930e-14  2.80498e-15      1278.79      47.0778
       4000.6255  7.58243e-14  2.80450e-15      1275.55      47.1786
       4002.1022  7.73935e-14  2.82088e-15      1304.85      47.5599
       4003.5789  8.07317e-14  2.83524e-15      1364.14      47.9077
       4005.0557  8.12500e-14  2.81913e-15      1376.26      47.7521
       4006.5324  8.00969e-14  2.80392e-15      1360.06      47.6109
       4008.0091  7.88441e-14  2.80425e-15      1342.12      47.7354
       4009.4859  7.76728e-14  2.80385e-15      1325.51      47.8488
       4010.9626  7.53434e-14  2.77412e-15      1289.02      47.4612
       4012.4394  7.43175e-14  2.76810e-15      1274.94      47.4875
       4013.9161  7.48095e-14  2.76589e-15      1287.04      47.5851
       4015.3928  7.98867e-14  2.81832e-15      1378.36      48.6272
       4016.8696  8.21166e-14  2.84257e-15      1421.04      49.1910
       4018.3463  8.39504e-14  2.85550e-15      1457.16      49.5641
       4019.8230  8.68926e-14  2.88009e-15      1512.78      50.1417
       4021.2998  9.42416e-14  2.95074e-15      1645.92      51.5345
       4022.7765  9.07972e-14  2.90871e-15      1590.81      50.9619
       4024.2532  9.13845e-14  2.90674e-15      1606.27      51.0919
       4025.7300  9.21669e-14  2.91981e-15      1625.27      51.4878
       4027.2067  9.21163e-14  2.90869e-15      1629.22      51.4445
       4028.6835  8.88489e-14  2.85660e-15      1575.29      50.6475
       4030.1602  8.50711e-14  2.78242e-15      1511.86      49.4484
       4031.6369  8.19181e-14  2.72298e-15      1459.70      48.5208
       4033.1137  7.45161e-14  2.64214e-15      1331.87      47.2247
       4034.5904  7.25359e-14  2.63988e-15      1300.64      47.3358
       4036.0671  6.76924e-14  2.60365e-15      1217.50      46.8288
       4037.5439  6.68427e-14  2.61437e-15      1206.07      47.1719
       4039.0206  6.48061e-14  2.57371e-15      1173.09      46.5882
       4040.4973  6.10278e-14  2.51674e-15      1108.25      45.7032
       4041.9741  6.63466e-14  2.54682e-15      1208.80      46.4019
       4043.4508  6.94128e-14  2.53886e-15      1268.76      46.4066
       4044.9276  6.86000e-14  2.50534e-15      1257.84      45.9376
       4046.4043  6.75854e-14  2.50922e-15      1243.25      46.1578
       4047.8810  6.86077e-14  2.55626e-15      1266.05      47.1717
       4049.3578  7.14138e-14  2.59717e-15      1321.91      48.0751
       4050.8345  7.20048e-14  2.59617e-15      1336.98      48.2054
       4052.3112  7.14311e-14  2.57612e-15      1330.27      47.9755
       4053.7880  7.33322e-14  2.57955e-15      1369.72      48.1814
       4055.2647  7.71195e-14  2.60904e-15      1444.64      48.8736
       4056.7414  8.04946e-14  2.63216e-15      1512.20      49.4488
       4058.2182  7.71314e-14  2.59147e-15      1453.20      48.8247
       4059.6949  7.52938e-14  2.57190e-15      1422.65      48.5952
       4061.1717  7.43847e-14  2.55186e-15      1409.36      48.3501
       4062.6484  7.30141e-14  2.51252e-15      1386.79      47.7214
       4064.1251  6.99077e-14  2.46857e-15      1330.45      46.9805
       4065.6019  6.81057e-14  2.46374e-15      1298.25      46.9643
       4067.0786  6.80724e-14  2.47969e-15      1299.61      47.3410
       4068.5553  6.66534e-14  2.47272e-15      1274.47      47.2805
       4070.0321  6.81722e-14  2.47874e-15      1305.41      47.4647
       4071.5088  6.99911e-14  2.48642e-15      1342.18      47.6804
       4072.9855  6.87912e-14  2.48331e-15      1321.03      47.6880
       4074.4623  7.04987e-14  2.50227e-15      1356.09      48.1328
       4075.9390  7.10012e-14  2.48482e-15      1368.39      47.8894
       4077.4157  7.08057e-14  2.47208e-15      1367.27      47.7364
       4078.8925  6.97039e-14  2.48081e-15      1348.68      48.0005
       4080.3692  6.65318e-14  2.46380e-15      1289.87      47.7663
       4081.8460  6.50154e-14  2.44229e-15      1263.02      47.4453
       4083.3227  6.05629e-14  2.37586e-15      1178.91      46.2481
       4084.7994  5.57468e-14  2.32806e-15      1087.36      45.4095
       4086.2762  5.29523e-14  2.30766e-15      1034.94      45.1026
       4087.7529  5.34952e-14  2.31619e-15      1047.66      45.3608
       4089.2296  6.14263e-14  2.41304e-15      1205.42      47.3530
       4090.7064  7.61793e-14  2.57035e-15      1497.95      50.5421
       4092.1831  8.74519e-14  2.67521e-15      1723.08      52.7102
       4093.6598  9.46878e-14  2.72978e-15      1869.42      53.8941
       4095.1366  1.02357e-13  2.78798e-15      2024.90      55.1542
       4096.6133  1.06690e-13  2.80756e-15      2114.89      55.6536
       4098.0901  1.10300e-13  2.82087e-15      2190.86      56.0302
       4099.5668  1.13170e-13  2.82394e-15      2252.40      56.2043
       4101.0435  1.18386e-13  2.84857e-15      2360.98      56.8092
       4102.5203  1.21598e-13  2.89251e-15      2430.02      57.8042
       4103.9970  1.22234e-13  2.92434e-15      2447.61      58.5568
       4105.4737  1.28548e-13  2.99230e-15      2578.12      60.0130
       4106.9505  1.28497e-13  3.00910e-15      2580.52      60.4297
       4108.4272  1.28227e-13  3.00354e-15      2578.12      60.3888
       4109.9039  1.26311e-13  2.98675e-15      2542.43      60.1185
       4111.3807  1.21825e-13  2.96068e-15      2454.88      59.6605
       4112.8574  1.14838e-13  2.90018e-15      2316.61      58.5049
       4114.3342  1.09324e-13  2.86103e-15      2207.78      57.7780
       4115.8109  1.05772e-13  2.82504e-15      2138.36      57.1132
       4117.2876  1.05048e-13  2.80652e-15      2126.04      56.8006
       4118.7644  1.06364e-13  2.80827e-15      2155.03      56.8980
       4120.2411  1.09733e-13  2.83499e-15      2225.71      57.5021
       4121.7178  1.09586e-13  2.83284e-15      2225.72      57.5355
       4123.1946  1.02613e-13  2.76293e-15      2088.09      56.2234
       4124.6713  1.06288e-13  2.78949e-15      2167.03      56.8731
       4126.1480  1.02187e-13  2.74640e-15      2087.42      56.1020
       4127.6248  1.03376e-13  2.74805e-15      2115.77      56.2436
       4129.1015  1.02708e-13  2.73595e-15      2106.16      56.1041
       4130.5783  9.81572e-14  2.68337e-15      2016.75      55.1329
       4132.0550  9.50438e-14  2.63931e-15      1956.89      54.3418
       4133.5317  9.61108e-14  2.64496e-15      1983.11      54.5748
       4135.0085  9.43692e-14  2.65026e-15      1951.34      54.8014
       4136.4852  8.88572e-14  2.60652e-15      1841.30      54.0125
       4137.9619  8.54098e-14  2.58151e-15      1773.66      53.6087
       4139.4387  8.16047e-14  2.53359e-15      1698.27      52.7262
       4140.9154  7.95733e-14  2.49169e-15      1659.54      51.9654
       4142.3921  7.69742e-14  2.42861e-15      1608.76      50.7580
       4143.8689  7.35772e-14  2.39411e-15      1541.06      50.1441
       4145.3456  6.92757e-14  2.37628e-15      1454.06      49.8770
       4146.8224  6.81246e-14  2.35647e-15      1432.96      49.5667
       4148.2991  6.79690e-14  2.34996e-15      1432.74      49.5355
       4149.7758  6.76166e-14  2.34441e-15      1428.35      49.5239
       4151.2526  7.25914e-14  2.38294e-15      1536.74      50.4461
       4152.7293  7.89570e-14  2.44493e-15      1674.71      51.8581
       4154.2060  8.23254e-14  2.47691e-15      1748.53      52.6078
       4155.6828  8.65520e-14  2.52178e-15      1840.79      53.6333
       4157.1595  8.37872e-14  2.48804e-15      1784.41      52.9875
       4158.6362  8.63990e-14  2.52056e-15      1842.53      53.7531
       4160.1130  9.74058e-14  2.62806e-15      2080.06      56.1209
       4161.5897  1.06190e-13  2.72038e-15      2270.73      58.1719
       4163.0665  1.17838e-13  2.82471e-15      2523.36      60.4879
       4164.5432  1.29631e-13  2.92111e-15      2779.71      62.6383
       4166.0199  1.39058e-13  2.98218e-15      2986.08      64.0385
       4167.4967  1.54825e-13  3.09610e-15      3329.49      66.5812
       4168.9734  1.63813e-13  3.16578e-15      3529.17      68.2031
       4170.4501  1.76321e-13  3.24084e-15      3807.32      69.9798
       4171.9269  1.78235e-13  3.23339e-15      3857.59      69.9812
       4173.4036  1.76045e-13  3.21559e-15      3819.31      69.7622
       4174.8803  1.78531e-13  3.23735e-15      3882.80      70.4077
       4176.3571  1.79061e-13  3.24166e-15      3904.06      70.6777
       4177.8338  1.76117e-13  3.22110e-15      3849.47      70.4049
       4179.3105  1.72670e-13  3.19230e-15      3783.55      69.9498
       4180.7873  1.67538e-13  3.15144e-15      3680.25      69.2268
       4182.2640  1.62377e-13  3.09928e-15      3575.79      68.2510
       4183.7408  1.53108e-13  3.02646e-15      3380.08      66.8136
       4185.2175  1.38939e-13  2.90752e-15      3074.92      64.3476
       4186.6942  1.25498e-13  2.78611e-15      2784.38      61.8143
       4188.1710  1.12460e-13  2.67230e-15      2501.32      59.4368
       4189.6477  9.90105e-14  2.56258e-15      2207.65      57.1382
       4191.1244  9.33528e-14  2.50475e-15      2086.68      55.9878
       4192.6012  8.52846e-14  2.43501e-15      1911.01      54.5626
       4194.0779  8.00897e-14  2.36603e-15      1798.66      53.1364
       4195.5546  7.97922e-14  2.34915e-15      1796.01      52.8759
       4197.0314  7.30572e-14  2.26858e-15      1648.04      51.1752
       4198.5081  7.88699e-14  2.31836e-15      1783.08      52.4131
       4199.9849  8.57216e-14  2.37708e-15      1941.64      53.8422
       4201.4616  8.41110e-14  2.37231e-15      1907.92      53.8119
       4202.9383  8.33694e-14  2.37335e-15      1893.78      53.9119
       4204.4151  8.49013e-14  2.40513e-15      1931.19      54.7079
       4205.8918  8.45497e-14  2.40464e-15      1925.66      54.7667
       4207.3685  8.29308e-14  2.39053e-15      1891.14      54.5135
       4208.8453  8.06353e-14  2.35966e-15      1841.09      53.8765
       4210.3220  7.80691e-14  2.33419e-15      1785.11      53.3729
       4211.7987  7.49979e-14  2.30467e-15      1717.39      52.7751
       4213.2755  7.64979e-14  2.31393e-15      1754.17      53.0607
       4214.7522  7.75893e-14  2.29997e-15      1781.43      52.8065
       4216.2290  8.22685e-14  2.35319e-15      1891.22      54.0960
       4217.7057  8.58345e-14  2.39347e-15      1975.67      55.0910
       4219.1824  9.83979e-14  2.50707e-15      2267.68      57.7779
       4220.6592  1.15617e-13  2.66549e-15      2667.85      61.5059
       4222.1359  1.35107e-13  2.80319e-15      3121.49      64.7642
       4223.6126  1.50796e-13  2.90627e-15      3488.31      67.2298
       4225.0894  1.55776e-13  2.91531e-15      3608.03      67.5236
       4226.5661  1.56447e-13  2.91319e-15      3628.12      67.5590
       4228.0428  1.57031e-13  2.94081e-15      3646.23      68.2850
       4229.5196  1.59098e-13  2.98118e-15      3698.87      69.3092
       4230.9963  1.61024e-13  3.00046e-15      3748.34      69.8451
       4232.4731  1.60960e-13  2.99558e-15      3751.55      69.8189
       4233.9498  1.65495e-13  3.00930e-15      3862.08      70.2266
       4235.4265  1.69064e-13  3.02943e-15      3950.34      70.7852
       4236.9033  1.67930e-13  3.01594e-15      3928.75      70.5585
       4238.3800  1.67875e-13  3.01625e-15      3932.41      70.6544
       4239.8567  1.69555e-13  3.03820e-15      3976.74      71.2579
       4241.3335  1.69052e-13  3.04527e-15      3969.09      71.4981
       4242.8102  1.62069e-13  2.98773e-15      3809.10      70.2206
       4244.2869  1.50351e-13  2.89938e-15      3537.64      68.2199
       4245.7637  1.43652e-13  2.83666e-15      3384.26      66.8282
       4247.2404  1.38985e-13  2.78050e-15      3278.42      65.5873
       4248.7172  1.37116e-13  2.75678e-15      3238.41      65.1095
       4250.1939  1.38059e-13  2.77092e-15      3265.41      65.5384
       4251.6706  1.39351e-13  2.78466e-15      3300.99      65.9637
       4253.1474  1.34707e-13  2.74883e-15      3195.85      65.2145
       4254.6241  1.28439e-13  2.69639e-15      3051.80      64.0685
       4256.1008  1.27454e-13  2.68819e-15      3032.39      63.9574
       4257.5776  1.24609e-13  2.66560e-15      2968.36      63.4982
       4259.0543  1.22854e-13  2.62992e-15      2930.16      62.7259
       4260.5310  1.20066e-13  2.59500e-15      2867.21      61.9694
       4262.0078  1.20099e-13  2.61645e-15      2871.56      62.5593
       4263.4845  1.23990e-13  2.66425e-15      2968.29      63.7814
       4264.9612  1.23479e-13  2.66284e-15      2959.73      63.8271
       4266.4380  1.25202e-13  2.65412e-15      3004.77      63.6971
       4267.9147  1.22807e-13  2.63203e-15      2950.96      63.2455
       4269.3915  1.23448e-13  2.60676e-15      2970.04      62.7164
       4270.8682  1.19596e-13  2.56202e-15      2880.96      61.7165
       4272.3449  1.14803e-13  2.51103e-15      2768.94      60.5635
       4273.8217  1.14427e-13  2.52071e-15      2763.30      60.8728
       4275.2984  1.03870e-13  2.44520e-15      2511.48      59.1229
       4276.7751  9.98381e-14  2.43190e-15      2417.01      58.8745
       4278.2519  1.03029e-13  2.45533e-15      2497.36      59.5159
       4279.7286  1.02383e-13  2.44742e-15      2484.80      59.3981
       4281.2053  1.05153e-13  2.45953e-15      2554.72      59.7548
       4282.6821  1.06975e-13  2.47450e-15      2601.56      60.1785
       4284.1588  1.12627e-13  2.51524e-15      2741.76      61.2302
       4285.6356  1.11669e-13  2.49599e-15      2721.15      60.8221
       4287.1123  1.19574e-13  2.55499e-15      2916.68      62.3219
       4288.5890  1.31812e-13  2.64384e-15      3218.39      64.5536
       4290.0658  1.39696e-13  2.69617e-15      3414.30      65.8970
       4291.5425  1.51784e-13  2.80795e-15      3713.44      68.6974
       4293.0192  1.59432e-13  2.86354e-15      3906.08      70.1567
       4294.4960  1.60475e-13  2.86608e-15      3937.89      70.3308
       4295.9727  1.63878e-13  2.87326e-15      4027.81      70.6192
       4297.4494  1.65558e-13  2.86168e-15      4075.66      70.4481
       4298.9262  1.62252e-13  2.81853e-15      4002.05      69.5207
       4300.4029  1.58177e-13  2.77992e-15      3909.21      68.7032
       4301.8797  1.55930e-13  2.76407e-15      3861.53      68.4510
       4303.3564  1.54558e-13  2.75176e-15      3835.39      68.2854
       4304.8331  1.52953e-13  2.73293e-15      3803.29      67.9565
       4306.3099  1.55481e-13  2.74790e-15      3874.05      68.4683
       4307.7866  1.53187e-13  2.71776e-15      3824.69      67.8553
       4309.2633  1.54994e-13  2.74048e-15      3877.69      68.5622
       4310.7401  1.46614e-13  2.68391e-15      3675.52      67.2839
       4312.2168  1.39401e-13  2.65072e-15      3501.81      66.5871
       4313.6935  1.33861e-13  2.62744e-15      3369.49      66.1369
       4315.1703  1.25217e-13  2.58577e-15      3158.32      65.2206
       4316.6470  1.19303e-13  2.56069e-15      3015.29      64.7195
       4318.1238  1.08554e-13  2.47034e-15      2749.40      62.5674
       4319.6005  9.94867e-14  2.37838e-15      2525.06      60.3653
       4321.0772  9.28023e-14  2.29454e-15      2360.37      58.3602
       4322.5540  8.30260e-14  2.18084e-15      2116.17      55.5853
       4324.0307  7.85494e-14  2.10811e-15      2005.46      53.8224
       4325.5074  8.43000e-14  2.15621e-15      2155.55      55.1340
       4326.9842  9.72512e-14  2.30401e-15      2490.49      59.0030
       4328.4609  1.23976e-13  2.55158e-15      3179.63      65.4408
       4329.9376  1.49696e-13  2.75474e-15      3843.84      70.7351
       4331.4144  1.66964e-13  2.87408e-15      4292.35      73.8872
       4332.8911  1.79186e-13  2.95936e-15      4611.71      76.1651
       4334.3679  1.88374e-13  3.00981e-15      4853.63      77.5504
       4335.8446  1.90700e-13  3.00949e-15      4919.08      77.6292
       4337.3213  1.97821e-13  3.03116e-15      5108.93      78.2828
       4338.7981  2.08410e-13  3.07623e-15      5390.02      79.5592
       4340.2748  2.21986e-13  3.16137e-15      5749.24      81.8768
       4341.7515  2.38591e-13  3.27414e-15      6188.05      84.9174
       4343.2283  2.46997e-13  3.33856e-15      6415.34      86.7135
       4344.7050  2.60645e-13  3.42651e-15      6781.19      89.1475
       4346.1817  2.72636e-13  3.49702e-15      7105.11      91.1353
       4347.6585  2.76308e-13  3.52085e-15      7213.45      91.9173
       4349.1352  2.74578e-13  3.50540e-15      7180.77      91.6733
       4350.6120  2.60314e-13  3.41186e-15      6819.90      89.3866
       4352.0887  2.42764e-13  3.30197e-15      6371.72      86.6653
       4353.5654  2.20522e-13  3.17052e-15      5798.55      83.3676
       4355.0422  2.06916e-13  3.09596e-15      5451.59      81.5690
       4356.5189  1.98611e-13  3.03888e-15      5243.44      80.2284
       4357.9956  1.93876e-13  3.01350e-15      5128.87      79.7205
       4359.4724  1.88011e-13  2.96916e-15      4983.85      78.7075
       4360.9491  1.75475e-13  2.88996e-15      4660.99      76.7635
       4362.4258  1.66138e-13  2.82645e-15      4421.82      75.2269
       4363.9026  1.57690e-13  2.76101e-15      4205.38      73.6321
       4365.3793  1.51375e-13  2.71182e-15      4045.04      72.4650
       4366.8560  1.44170e-13  2.65012e-15      3860.20      70.9580
       4368.3328  1.35318e-13  2.57182e-15      3630.11      68.9930
       4369.8095  1.26394e-13  2.50522e-15      3396.51      67.3214
       4371.2863  1.22571e-13  2.47131e-15      3299.44      66.5241
       4372.7630  1.26134e-13  2.48569e-15      3401.16      67.0257
       4374.2397  1.30980e-13  2.52043e-15      3537.77      68.0766
       4375.7165  1.33655e-13  2.54099e-15      3615.24      68.7315
       4377.1932  1.33648e-13  2.54634e-15      3620.28      68.9760
       4378.6699  1.24983e-13  2.47576e-15      3390.24      67.1565
       4380.1467  1.21951e-13  2.43838e-15      3313.19      66.2461
       4381.6234  1.24894e-13  2.43769e-15      3399.27      66.3471
       4383.1001  1.29597e-13  2.45264e-15      3534.28      66.8867
       4384.5769  1.37884e-13  2.51673e-15      3768.44      68.7833
       4386.0536  1.38987e-13  2.54669e-15      3806.85      69.7536
       4387.5304  1.41478e-13  2.56635e-15      3883.38      70.4430
       4389.0071  1.45887e-13  2.60101e-15      4013.02      71.5478
       4390.4838  1.56484e-13  2.67494e-15      4313.75      73.7393
       4391.9606  1.61122e-13  2.70632e-15      4451.13      74.7642
       4393.4373  1.60710e-13  2.70411e-15      4449.26      74.8635
       4394.9140  1.56022e-13  2.66978e-15      4328.74      74.0714
       4396.3908  1.51451e-13  2.63805e-15      4210.91      73.3478
       4397.8675  1.45762e-13  2.59805e-15      4061.41      72.3906
       4399.3442  1.39415e-13  2.54175e-15      3892.90      70.9734
       4400.8210  1.35150e-13  2.50293e-15      3781.86      70.0389
       4402.2977  1.35517e-13  2.49886e-15      3800.17      70.0733
       4403.7745  1.35692e-13  2.48485e-15      3813.14      69.8279
       4405.2512  1.40682e-13  2.52146e-15      3961.76      71.0069
       4406.7279  1.48752e-13  2.58628e-15      4197.89      72.9864
       4408.2047  1.50340e-13  2.60427e-15      4251.68      73.6498
       4409.6814  1.50401e-13  2.60931e-15      4262.39      73.9485
       4411.1581  1.49832e-13  2.60975e-15      4254.25      74.0999
       4412.6349  1.49930e-13  2.60493e-15      4263.82      74.0810
       4414.1116  1.49735e-13  2.59349e-15      4264.20      73.8581
       4415.5883  1.45538e-13  2.55658e-15      4150.29      72.9058
       4417.0651  1.42383e-13  2.54191e-15      4065.42      72.5783
       4418.5418  1.38920e-13  2.52658e-15      3971.47      72.2302
       4420.0186  1.31983e-13  2.47785e-15      3777.86      70.9258
       4421.4953  1.25429e-13  2.42306e-15      3594.76      69.4439
       4422.9720  1.21483e-13  2.38477e-15      3486.00      68.4318
       4424.4488  1.14743e-13  2.33183e-15      3296.73      66.9967
       4425.9255  1.04235e-13  2.24484e-15      2998.62      64.5792
       4427.4022  9.10990e-14  2.13687e-15      2624.20      61.5547
       4428.8790  8.17603e-14  2.05442e-15      2358.31      59.2581
       4430.3557  8.04455e-14  2.03328e-15      2323.59      58.7293
       4431.8324  8.32808e-14  2.05319e-15      2408.81      59.3863
       4433.3092  8.67316e-14  2.08687e-15      2512.09      60.4440
       4434.7859  8.55534e-14  2.06799e-15      2481.39      59.9799
       4436.2627  8.51140e-14  2.06942e-15      2472.06      60.1045
       4437.7394  8.56741e-14  2.08148e-15      2491.76      60.5383
       4439.2161  8.52485e-14  2.07487e-15      2482.68      60.4260
       4440.6929  8.78160e-14  2.08667e-15      2560.70      60.8470
       4442.1696  9.26071e-14  2.12538e-15      2703.80      62.0535
       4443.6463  9.79843e-14  2.17243e-15      2864.39      63.5069
       4445.1231  9.70012e-14  2.16786e-15      2839.18      63.4523
       4446.5998  1.02769e-13  2.21986e-15      3011.28      65.0450
       4448.0765  1.05091e-13  2.23152e-15      3082.51      65.4545
       4449.5533  1.07021e-13  2.24457e-15      3142.34      65.9047
       4451.0300  1.06182e-13  2.23242e-15      3120.87      65.6145
       4452.5068  1.06767e-13  2.22452e-15      3141.16      65.4472
       4453.9835  1.08686e-13  2.22976e-15      3200.81      65.6666
       4455.4602  1.13565e-13  2.26494e-15      3347.79      66.7684
       4456.9370  1.25415e-13  2.34787e-15      3700.72      69.2806
       4458.4137  1.37347e-13  2.44015e-15      4056.54      72.0695
       4459.8904  1.44103e-13  2.49030e-15      4259.97      73.6181
       4461.3672  1.49339e-13  2.52900e-15      4418.58      74.8269
       4462.8439  1.49670e-13  2.53351e-15      4432.20      75.0251
       4464.3206  1.50323e-13  2.54194e-15      4455.39      75.3399
       4465.7974  1.49580e-13  2.53666e-15      4437.23      75.2492
       4467.2741  1.46861e-13  2.51795e-15      4360.37      74.7593
       4468.7508  1.48259e-13  2.52879e-15      4405.74      75.1471
       4470.2276  1.43841e-13  2.49938e-15      4278.45      74.3421
       4471.7043  1.42872e-13  2.49588e-15      4253.83      74.3114
       4473.1811  1.37304e-13  2.46041e-15      4092.13      73.3289
       4474.6578  1.39034e-13  2.47160e-15      4147.86      73.7362
       4476.1345  1.42314e-13  2.49456e-15      4249.99      74.4961
       4477.6113  1.53391e-13  2.56240e-15      4585.38      76.5990
       4479.0880  1.63062e-13  2.61793e-15      4879.38      78.3374
       4480.5647  1.69774e-13  2.65226e-15      5085.35      79.4445
       4482.0415  1.69730e-13  2.64982e-15      5089.14      79.4515
       4483.5182  1.63460e-13  2.61935e-15      4906.07      78.6169
       4484.9949  1.59008e-13  2.59425e-15      4777.24      77.9418
       4486.4717  1.60448e-13  2.60253e-15      4825.36      78.2695
       4487.9484  1.67496e-13  2.64330e-15      5042.40      79.5756
       4489.4252  1.76209e-13  2.69670e-15      5310.05      81.2649
       4490.9019  1.78753e-13  2.70793e-15      5392.16      81.6857
       4492.3786  1.80823e-13  2.72611e-15      5460.31      82.3205
       4493.8554  1.85496e-13  2.75029e-15      5607.29      83.1376
       4495.3321  1.98337e-13  2.82519e-15      6001.99      85.4947
       4496.8088  2.06135e-13  2.87268e-15      6246.79      87.0545
       4498.2856  2.10306e-13  2.90269e-15      6383.66      88.1089
       4499.7623  2.03261e-13  2.85943e-15      6180.07      86.9398
       4501.2390  2.06354e-13  2.87085e-15      6284.76      87.4355
       4502.7158  2.05860e-13  2.86854e-15      6281.46      87.5286
       4504.1925  2.20544e-13  2.95471e-15      6742.28      90.3285
       4505.6693  2.29576e-13  3.00101e-15      7031.96      91.9213
       4507.1460  2.33642e-13  3.01970e-15      7170.53      92.6753
       4508.6227  2.47229e-13  3.08806e-15      7602.38      94.9590
       4510.0995  2.60480e-13  3.15372e-15      8026.68      97.1819
       4511.5762  2.72561e-13  3.21317e-15      8416.88      99.2250
       4513.0529  2.76492e-13  3.22495e-15      8556.48      99.8010
       4514.5297  2.75799e-13  3.22064e-15      8553.23      99.8801
       4516.0064  2.63341e-13  3.14979e-15      8184.27      97.8908
       4517.4831  2.59452e-13  3.12797e-15      8080.55      97.4198
       4518.9599  2.54254e-13  3.09661e-15      7935.52      96.6483
       4520.4366  2.48913e-13  3.06660e-15      7785.34      95.9151
       4521.9134  2.48750e-13  3.05953e-15      7796.91      95.8989
       4523.3901  2.51845e-13  3.06914e-15      7911.64      96.4161
       4524.8668  2.49685e-13  3.05273e-15      7861.40      96.1158
       4526.3436  2.36157e-13  2.96572e-15      7452.14      93.5861
       4527.8203  2.28532e-13  2.91556e-15      7225.49      92.1814
       4529.2970  2.24004e-13  2.88605e-15      7095.21      91.4140
       4530.7738  2.11068e-13  2.81423e-15      6698.28      89.3103
       4532.2505  1.98539e-13  2.74027e-15      6313.76      87.1437
       4533.7272  1.91516e-13  2.69060e-15      6101.99      85.7264
       4535.2040  1.88009e-13  2.67279e-15      6001.49      85.3188
       4536.6807  1.99588e-13  2.75101e-15      6382.81      87.9770
       4538.1575  2.11588e-13  2.82402e-15      6778.79      90.4752
       4539.6342  2.13063e-13  2.82811e-15      6838.38      90.7699
       4541.1109  2.17311e-13  2.84616e-15      6986.38      91.5018
       4542.5877  2.26428e-13  2.89320e-15      7291.39      93.1665
       4544.0644  2.36328e-13  2.94203e-15      7622.68      94.8942
       4545.5411  2.47498e-13  2.99853e-15      7996.07      96.8751
       4547.0179  2.55655e-13  3.03716e-15      8273.11      98.2840
       4548.4946  2.57023e-13  3.03567e-15      8330.87      98.3950
       4549.9713  2.59810e-13  3.04630e-15      8434.47      98.8948
       4551.4481  2.58330e-13  3.03848e-15      8398.82      98.7872
       4552.9248  2.60702e-13  3.04947e-15      8487.34      99.2780
       4554.4015  2.57386e-13  3.03193e-15      8389.48      98.8257
       4555.8783  2.48541e-13  2.98589e-15      8110.92      97.4421
       4557.3550  2.41901e-13  2.95484e-15      7903.43      96.5410
       4558.8318  2.36035e-13  2.92679e-15      7720.46      95.7324
       4560.3085  2.28370e-13  2.88493e-15      7477.34      94.4592
       4561.7852  2.28146e-13  2.88351e-15      7476.76      94.4980
       4563.2620  2.22249e-13  2.84519e-15      7288.61      93.3074
       4564.7387  2.19137e-13  2.81886e-15      7191.46      92.5070
       4566.2154  2.21102e-13  2.82907e-15      7260.80      92.9042
       4567.6922  2.21080e-13  2.83317e-15      7264.19      93.0916
       4569.1689  2.22391e-13  2.84004e-15      7311.41      93.3705
       4570.6456  2.32471e-13  2.89601e-15      7647.17      95.2646
       4572.1224  2.49435e-13  2.98050e-15      8209.86      98.0997
       4573.5991  2.57869e-13  3.02537e-15      8492.26      99.6329
       4575.0759  2.59487e-13  3.03238e-15      8550.38      99.9202
       4576.5526  2.64919e-13  3.06089e-15      8734.31      100.917
       4578.0293  2.78099e-13  3.12221e-15      9174.09      102.997
       4579.5061  2.85264e-13  3.15253e-15      9415.96      104.058
       4580.9828  2.91018e-13  3.17239e-15      9611.97      104.780
       4582.4595  2.94860e-13  3.19324e-15      9745.74      105.543
       4583.9363  2.91450e-13  3.17538e-15      9640.79      105.037
       4585.4130  2.92066e-13  3.17765e-15      9669.00      105.198
       4586.8897  2.85296e-13  3.14427e-15      9452.49      104.177
       4588.3665  2.81002e-13  3.12659e-15      9317.76      103.675
       4589.8432  2.75834e-13  3.09885e-15      9154.03      102.841
       4591.3200  2.67959e-13  3.05619e-15      8900.14      101.510
       4592.7967  2.51881e-13  2.96857e-15      8374.33      98.6963
       4594.2734  2.31309e-13  2.85795e-15      7698.37      95.1177
       4595.7502  2.08932e-13  2.73198e-15      6960.88      91.0197
       4597.2269  1.87520e-13  2.61163e-15      6253.99      87.1006
       4598.7036  1.65544e-13  2.47669e-15      5526.82      82.6865
       4600.1804  1.45102e-13  2.34591e-15      4849.39      78.4019
       4601.6571  1.29142e-13  2.23561e-15      4320.83      74.7993
       4603.1338  1.20009e-13  2.17604e-15      4019.81      72.8886
       4604.6106  1.22406e-13  2.19365e-15      4104.76      73.5618
       4606.0873  1.29664e-13  2.24099e-15      4353.08      75.2345
       4607.5641  1.33903e-13  2.27451e-15      4500.48      76.4465
       4609.0408  1.42191e-13  2.33350e-15      4784.49      78.5183
       4610.5175  1.48434e-13  2.36427e-15      5000.22      79.6436
       4611.9943  1.52365e-13  2.38834e-15      5138.47      80.5460
       4613.4710  1.55346e-13  2.40203e-15      5244.92      81.0995
       4614.9477  1.67504e-13  2.48042e-15      5661.83      83.8412
       4616.4245  1.77655e-13  2.54101e-15      6012.31      85.9943
       4617.9012  1.92451e-13  2.62637e-15      6522.16      89.0076
       4619.3779  1.96899e-13  2.64899e-15      6682.24      89.8998
       4620.8547  1.99219e-13  2.66210e-15      6770.42      90.4710
       4622.3314  2.12558e-13  2.73885e-15      7233.85      93.2095
       4623.8082  2.23345e-13  2.79110e-15      7610.51      95.1071
       4625.2849  2.31561e-13  2.82876e-15      7900.08      96.5078
       4626.7616  2.34431e-13  2.84372e-15      8008.57      97.1463
       4628.2384  2.25425e-13  2.79654e-15      7711.22      95.6624
       4629.7151  2.25533e-13  2.79332e-15      7725.35      95.6815
       4631.1918  2.23329e-13  2.77843e-15      7660.38      95.3026
       4632.6686  2.17060e-13  2.74029e-15      7455.11      94.1174
       4634.1453  2.12666e-13  2.71345e-15      7313.52      93.3150
       4635.6220  2.05025e-13  2.67022e-15      7059.79      91.9459
       4637.0988  2.00252e-13  2.63572e-15      6904.19      90.8731
       4638.5755  1.91011e-13  2.58260e-15      6593.64      89.1503
       4640.0523  1.81518e-13  2.52688e-15      6273.52      87.3324
       4641.5290  1.65800e-13  2.43521e-15      5737.20      84.2658
       4643.0057  1.55698e-13  2.36904e-15      5394.15      82.0756
       4644.4825  1.48695e-13  2.31780e-15      5157.76      80.3972
       4645.9592  1.41208e-13  2.26545e-15      4903.98      78.6766
       4647.4359  1.41148e-13  2.25799e-15      4907.41      78.5056
       4648.9127  1.38585e-13  2.24457e-15      4821.28      78.0875
       4650.3894  1.34961e-13  2.23019e-15      4698.15      77.6352
       4651.8661  1.39108e-13  2.25402e-15      4845.35      78.5111
       4653.3429  1.42093e-13  2.27413e-15      4952.24      79.2581
       4654.8196  1.48735e-13  2.31405e-15      5186.74      80.6964
       4656.2963  1.49015e-13  2.31807e-15      5199.44      80.8823
       4657.7731  1.48978e-13  2.32605e-15      5200.54      81.1981
       4659.2498  1.48540e-13  2.32625e-15      5187.56      81.2413
       4660.7266  1.48867e-13  2.32285e-15      5201.25      81.1574
       4662.2033  1.48493e-13  2.31370e-15      5190.29      80.8708
       4663.6800  1.49216e-13  2.31156e-15      5217.50      80.8262
       4665.1568  1.45501e-13  2.28144e-15      5089.47      79.8025
       4666.6335  1.39153e-13  2.23186e-15      4869.27      78.0974
       4668.1102  1.37209e-13  2.21820e-15      4803.07      77.6492
       4669.5870  1.29048e-13  2.17743e-15      4519.34      76.2551
       4671.0637  1.25033e-13  2.15667e-15      4380.68      75.5617
       4672.5404  1.23535e-13  2.13842e-15      4330.13      74.9557
       4674.0172  1.21317e-13  2.12334e-15      4254.30      74.4604
       4675.4939  1.18150e-13  2.10842e-15      4145.07      73.9699
       4676.9707  1.15187e-13  2.08535e-15      4042.92      73.1934
       4678.4474  1.11293e-13  2.05004e-15      3907.98      71.9861
       4679.9241  1.07874e-13  2.02360e-15      3790.89      71.1127
       4681.4009  1.08363e-13  2.03003e-15      3811.04      71.3941
       4682.8776  1.06429e-13  2.01958e-15      3746.31      71.0893
       4684.3543  1.05546e-13  2.00973e-15      3718.53      70.8056
       4685.8311  1.06640e-13  2.01943e-15      3760.40      71.2106
       4687.3078  1.09533e-13  2.03381e-15      3865.88      71.7814
       4688.7845  1.07956e-13  2.02573e-15      3814.43      71.5758
       4690.2613  1.05976e-13  2.00425e-15      3748.68      70.8965
       4691.7380  1.03998e-13  1.98988e-15      3683.09      70.4717
       4693.2148  1.07272e-13  2.01374e-15      3803.61      71.4027
       4694.6915  1.08386e-13  2.02026e-15      3848.49      71.7335
       4696.1682  1.09030e-13  2.02093e-15      3876.80      71.8584
       4697.6450  1.09165e-13  2.02006e-15      3887.11      71.9294
       4699.1217  1.09741e-13  2.01532e-15      3913.94      71.8772
       4700.5984  1.11677e-13  2.02312e-15      3989.70      72.2766
       4702.0752  1.09838e-13  2.00733e-15      3930.58      71.8327
       4703.5519  1.07178e-13  1.98347e-15      3842.78      71.1154
       4705.0286  1.05003e-13  1.97283e-15      3772.81      70.8847
       4706.5054  1.01445e-13  1.94128e-15      3653.15      69.9076
       4707.9821  1.02191e-13  1.94479e-15      3688.30      70.1915
       4709.4589  1.04581e-13  1.96367e-15      3783.43      71.0393
       4710.9356  9.92579e-14  1.92330e-15      3599.45      69.7456
       4712.4123  9.73491e-14  1.90917e-15      3538.85      69.4026
       4713.8891  1.01305e-13  1.93000e-15      3691.72      70.3323
       4715.3658  9.77664e-14  1.91153e-15      3571.56      69.8311
       4716.8425  9.98887e-14  1.92737e-15      3658.52      70.5918
       4718.3193  1.07276e-13  1.97908e-15      3939.50      72.6777
       4719.7960  1.11836e-13  2.01200e-15      4117.15      74.0703
       4721.2727  1.14371e-13  2.02540e-15      4221.02      74.7498
       4722.7495  1.19321e-13  2.05988e-15      4415.48      76.2262
       4724.2262  1.20944e-13  2.06237e-15      4487.87      76.5281
       4725.7030  1.20387e-13  2.05197e-15      4479.13      76.3455
       4727.1797  1.22969e-13  2.05642e-15      4587.45      76.7162
       4728.6564  1.24452e-13  2.05894e-15      4656.10      77.0310
       4730.1332  1.23545e-13  2.05292e-15      4634.92      77.0174
       4731.6099  1.21518e-13  2.03833e-15      4572.01      76.6904
       4733.0866  1.18860e-13  2.01949e-15      4485.12      76.2043
       4734.5634  1.19248e-13  2.02368e-15      4512.18      76.5731
       4736.0401  1.15965e-13  1.99228e-15      4399.54      75.5841
       4737.5168  1.10014e-13  1.95405e-15      4184.34      74.3215
       4738.9936  1.08362e-13  1.94104e-15      4132.93      74.0313
       4740.4703  1.07006e-13  1.92431e-15      4092.43      73.5949
       4741.9471  9.92533e-14  1.86825e-15      3806.16      71.6434
       4743.4238  9.66323e-14  1.85166e-15      3715.90      71.2038
       4744.9005  9.35666e-14  1.82218e-15      3607.55      70.2558
       4746.3773  9.15192e-14  1.80506e-15      3537.93      69.7799
       4747.8540  8.87951e-14  1.78057e-15      3441.50      69.0109
       4749.3307  8.78103e-14  1.76833e-15      3411.89      68.7090
       4750.8075  8.83982e-14  1.76895e-15      3443.18      68.9021
       4752.2842  9.23004e-14  1.79341e-15      3603.84      70.0230
       4753.7609  9.35068e-14  1.79939e-15      3658.88      70.4095
       4755.2377  9.35562e-14  1.79373e-15      3668.46      70.3343
       4756.7144  9.51490e-14  1.80685e-15      3738.30      70.9892
       4758.1911  9.45260e-14  1.80418e-15      3721.35      71.0277
       4759.6679  9.46037e-14  1.79837e-15      3731.33      70.9308
       4761.1446  9.23508e-14  1.77954e-15      3649.00      70.3138
       4762.6214  9.28820e-14  1.77850e-15      3675.90      70.3859
       4764.0981  9.26039e-14  1.77558e-15      3670.53      70.3786
       4765.5748  8.78969e-14  1.73795e-15      3489.12      68.9891
       4767.0516  9.28105e-14  1.77396e-15      3689.37      70.5179
       4768.5283  9.68391e-14  1.80436e-15      3855.12      71.8307
       4770.0050  9.54596e-14  1.79289e-15      3804.96      71.4636
       4771.4818  9.87407e-14  1.82185e-15      3940.49      72.7053
       4772.9585  9.88735e-14  1.82380e-15      3950.54      72.8711
       4774.4352  9.83532e-14  1.81994e-15      3934.02      72.7957
       4775.9120  9.67740e-14  1.81151e-15      3875.03      72.5368
       4777.3887  9.70881e-14  1.80897e-15      3891.81      72.5131
       4778.8655  9.95813e-14  1.82289e-15      3995.87      73.1466
       4780.3422  9.81292e-14  1.81088e-15      3941.67      72.7399
       4781.8189  1.00226e-13  1.81778e-15      4030.50      73.1006
       4783.2957  9.75189e-14  1.79613e-15      3926.29      72.3155
       4784.7724  9.71287e-14  1.79262e-15      3915.21      72.2598
       4786.2491  9.67841e-14  1.79035e-15      3905.96      72.2538
       4787.7259  9.65092e-14  1.78728e-15      3899.50      72.2160
       4789.2026  9.12982e-14  1.74798e-15      3693.07      70.7070
       4790.6793  9.15685e-14  1.75054e-15      3708.01      70.8871
       4792.1561  9.71838e-14  1.79431e-15      3939.61      72.7374
       4793.6328  1.02791e-13  1.83697e-15      4171.37      74.5464
       4795.1096  1.06687e-13  1.86115e-15      4334.12      75.6085
       4796.5863  1.10545e-13  1.88450e-15      4495.77      76.6411
       4798.0630  1.10588e-13  1.88146e-15      4502.44      76.6012
       4799.5398  1.11849e-13  1.88872e-15      4558.86      76.9828
       4801.0165  1.15177e-13  1.91029e-15      4699.58      77.9459
       4802.4932  1.17071e-13  1.92336e-15      4781.89      78.5616
       4803.9700  1.15454e-13  1.90889e-15      4720.76      78.0524
       4805.4467  1.12716e-13  1.89058e-15      4613.66      77.3844
       4806.9234  1.08417e-13  1.85796e-15      4442.32      76.1292
       4808.4002  1.08505e-13  1.85587e-15      4450.57      76.1225
       4809.8769  1.11397e-13  1.88018e-15      4573.87      77.1988
       4811.3537  1.14199e-13  1.89797e-15      4693.75      78.0092
       4812.8304  1.19861e-13  1.93262e-15      4931.06      79.5080
       4814.3071  1.18138e-13  1.92310e-15      4865.01      79.1947
       4815.7839  1.10388e-13  1.87453e-15      4550.38      77.2718
       4817.2606  1.06877e-13  1.84637e-15      4410.30      76.1904
       4818.7373  1.03947e-13  1.82483e-15      4293.88      75.3808
       4820.2141  1.05612e-13  1.83287e-15      4367.21      75.7920
       4821.6908  1.11379e-13  1.86786e-15      4610.52      77.3203
       4823.1675  1.22895e-13  1.93783e-15      5092.56      80.3008
       4824.6443  1.32618e-13  2.00069e-15      5501.24      82.9922
       4826.1210  1.38285e-13  2.03821e-15      5742.33      84.6374
       4827.5978  1.44321e-13  2.07228e-15      5999.01      86.1389
       4829.0745  1.48546e-13  2.09266e-15      6180.77      87.0722
       4830.5512  1.48102e-13  2.08697e-15      6167.99      86.9160
       4832.0280  1.48468e-13  2.08977e-15      6188.97      87.1131
       4833.5047  1.43701e-13  2.06093e-15      5995.78      85.9905
       4834.9814  1.37685e-13  2.02377e-15      5750.08      84.5179
       4836.4582  1.34400e-13  2.00380e-15      5618.09      83.7614
       4837.9349  1.27159e-13  1.95677e-15      5320.33      81.8713
       4839.4116  1.18874e-13  1.89964e-15      4978.29      79.5549
       4840.8884  1.12239e-13  1.85274e-15      4704.78      77.6624
       4842.3651  1.14408e-13  1.86576e-15      4800.17      78.2807
       4843.8418  1.32564e-13  1.97864e-15      5567.18      83.0952
       4845.3186  1.71953e-13  2.20591e-15      7228.02      92.7253
       4846.7953  2.42119e-13  2.55838e-15      10187.5      107.648
       4848.2721  3.31822e-13  2.95088e-15      13975.8      124.287
       4849.7488  4.12032e-13  3.26170e-15      17372.3      137.522
       4851.2255  4.67104e-13  3.45693e-15      19716.5      145.917
       4852.7023  4.92809e-13  3.53979e-15      20825.9      149.590
       4854.1790  5.06360e-13  3.57899e-15      21424.7      151.431
       4855.6557  5.16321e-13  3.60427e-15      21872.8      152.687
       4857.1325  5.14445e-13  3.59221e-15      21819.8      152.361
       4858.6092  4.95601e-13  3.52153e-15      21046.2      149.545
       4860.0859  4.71345e-13  3.43026e-15      20040.5      145.847
       4861.5627  4.56876e-13  3.37794e-15      19449.0      143.798
       4863.0394  4.56140e-13  3.37849e-15      19441.4      143.996
       4864.5162  4.63717e-13  3.40996e-15      19787.5      145.508
       4865.9929  4.88376e-13  3.49769e-15      20859.7      149.395
       4867.4696  5.17584e-13  3.59481e-15      22127.3      153.682
       4868.9464  5.41851e-13  3.66985e-15      23184.7      157.025
       4870.4231  5.40686e-13  3.66275e-15      23154.1      156.852
       4871.8998  5.08853e-13  3.55816e-15      21806.2      152.480
       4873.3766  4.54185e-13  3.37288e-15      19477.1      144.641
       4874.8533  3.90649e-13  3.14460e-15      16763.6      134.941
       4876.3300  3.30982e-13  2.91295e-15      14211.5      125.074
       4877.8068  2.79410e-13  2.69845e-15      12003.4      115.925
       4879.2835  2.37330e-13  2.51241e-15      10200.4      107.982
       4880.7603  2.05470e-13  2.35680e-15      8834.69      101.336
       4882.2370  1.84982e-13  2.24827e-15      7956.46      96.7028
       4883.7137  1.77551e-13  2.20727e-15      7639.09      94.9671
       4885.1905  1.76259e-13  2.19753e-15      7584.97      94.5665
       4886.6672  1.75012e-13  2.18913e-15      7532.80      94.2236
       4888.1439  1.72910e-13  2.17768e-15      7443.79      93.7494
       4889.6207  1.71768e-13  2.16924e-15      7396.09      93.4042
       4891.0974  1.69308e-13  2.15381e-15      7291.59      92.7580
       4892.5741  1.65582e-13  2.13833e-15      7132.51      92.1094
       4894.0509  1.59755e-13  2.11403e-15      6882.85      91.0803
       4895.5276  1.52165e-13  2.07585e-15      6557.43      89.4567
       4897.0044  1.44873e-13  2.03351e-15      6246.03      87.6724
       4898.4811  1.40750e-13  2.00664e-15      6071.06      86.5539
       4899.9578  1.41442e-13  2.00680e-15      6104.05      86.6052
       4901.4346  1.39767e-13  1.99676e-15      6035.08      86.2189
       4902.9113  1.38614e-13  1.98859e-15      5989.40      85.9255
       4904.3880  1.44178e-13  2.01957e-15      6234.14      87.3244
       4905.8648  1.57648e-13  2.09658e-15      6821.24      90.7165
       4907.3415  1.84173e-13  2.23497e-15      7974.44      96.7712
       4908.8182  2.26311e-13  2.44179e-15      9805.75      105.799
       4910.2950  2.77359e-13  2.67395e-15      12025.9      115.938
       4911.7717  3.22759e-13  2.86745e-15      14004.0      124.414
       4913.2485  3.51029e-13  2.98250e-15      15241.1      129.495
       4914.7252  3.66054e-13  3.03940e-15      15902.8      132.043
       4916.2019  3.75349e-13  3.06947e-15      16316.3      133.429
       4917.6787  3.85684e-13  3.10259e-15      16775.5      134.949
       4919.1554  3.96573e-13  3.13698e-15      17259.0      136.523
       4920.6321  4.02839e-13  3.15926e-15      17541.2      137.567
       4922.1089  4.05484e-13  3.17249e-15      17665.8      138.217
       4923.5856  4.03304e-13  3.16740e-15      17580.3      138.069
       4925.0623  4.00456e-13  3.15829e-15      17465.5      137.746
       4926.5391  3.99867e-13  3.15675e-15      17449.2      137.753
       4928.0158  4.05264e-13  3.17675e-15      17694.3      138.700
       4929.4926  4.08429e-13  3.18813e-15      17842.9      139.279
       4930.9693  4.04599e-13  3.17126e-15      17685.9      138.623
       4932.4460  3.95002e-13  3.13355e-15      17276.5      137.054
       4933.9228  3.77738e-13  3.06762e-15      16531.1      134.249
       4935.3995  3.53339e-13  2.97122e-15      15472.4      130.107
       4936.8762  3.16652e-13  2.82299e-15      13874.0      123.688
       4938.3530  2.82496e-13  2.67889e-15      12384.7      117.444
       4939.8297  2.49884e-13  2.53811e-15      10961.4      111.337
       4941.3064  2.26490e-13  2.43266e-15      9941.06      106.774
       4942.7832  2.04572e-13  2.32713e-15      8984.33      102.202
       4944.2599  1.88466e-13  2.24617e-15      8281.85      98.7044
       4945.7366  1.74405e-13  2.16957e-15      7669.28      95.4046
       4947.2134  1.62751e-13  2.10482e-15      7160.62      92.6062
       4948.6901  1.52609e-13  2.04912e-15      6716.74      90.1875
       4950.1669  1.47679e-13  2.01909e-15      6502.19      88.8990
       4951.6436  1.41118e-13  1.98055e-15      6215.96      87.2389
       4953.1203  1.35280e-13  1.94514e-15      5961.34      85.7160
       4954.5971  1.30555e-13  1.91215e-15      5755.62      84.2986
       4956.0738  1.22918e-13  1.85786e-15      5421.30      81.9407
       4957.5505  1.15838e-13  1.80977e-15      5111.22      79.8543
       4959.0273  1.08720e-13  1.77042e-15      4799.25      78.1519
       4960.5040  1.01903e-13  1.73126e-15      4500.24      76.4560
       4961.9807  9.44977e-14  1.68066e-15      4175.03      74.2539
       4963.4575  8.96170e-14  1.64745e-15      3961.10      72.8178
       4964.9342  8.40598e-14  1.60178e-15      3717.08      70.8297
       4966.4110  7.74376e-14  1.54808e-15      3425.73      68.4851
       4967.8877  7.49133e-14  1.52843e-15      3315.50      67.6452
       4969.3644  7.17230e-14  1.50503e-15      3175.68      66.6380
       4970.8412  6.49849e-14  1.45256e-15      2878.58      64.3429
       4972.3179  6.20995e-14  1.43144e-15      2751.96      63.4348
       4973.7946  5.81405e-14  1.40284e-15      2577.64      62.1944
       4975.2714  6.02953e-14  1.41822e-15      2674.33      62.9035
       4976.7481  6.97886e-14  1.48688e-15      3096.74      65.9775
       4978.2248  8.73572e-14  1.61478e-15      3878.80      71.6987
       4979.7016  1.08612e-13  1.75792e-15      4826.52      78.1191
       4981.1783  1.27925e-13  1.87820e-15      5689.49      83.5330
       4982.6551  1.39933e-13  1.94381e-15      6228.67      86.5227
       4984.1318  1.52672e-13  2.01479e-15      6801.35      89.7561
       4985.6085  1.62377e-13  2.07213e-15      7239.66      92.3869
       4987.0853  1.70990e-13  2.12884e-15      7629.43      94.9874
       4988.5620  1.76347e-13  2.15699e-15      7872.83      96.2965
       4990.0387  1.71240e-13  2.12907e-15      7648.41      95.0947
       4991.5155  1.64037e-13  2.09003e-15      7329.56      93.3873
       4992.9922  1.52296e-13  2.02271e-15      6806.30      90.3976
       4994.4689  1.42749e-13  1.97012e-15      6379.45      88.0442
       4995.9457  1.37597e-13  1.93916e-15      6147.97      86.6438
       4997.4224  1.35207e-13  1.92462e-15      6040.01      85.9770
       4998.8992  1.44668e-13  1.97511e-15      6461.37      88.2153
       5000.3759  1.66075e-13  2.09067e-15      7415.77      93.3550
       5001.8526  2.02219e-13  2.27872e-15      9026.93      101.721
       5003.3294  2.57636e-13  2.54077e-15      11497.2      113.383
       5004.8061  3.27189e-13  2.83345e-15      14596.4      126.405
       5006.2828  3.83007e-13  3.04769e-15      17081.2      135.919
       5007.7596  4.17829e-13  3.17883e-15      18628.3      141.723
       5009.2363  4.36070e-13  3.24718e-15      19435.4      144.725
       5010.7130  4.47325e-13  3.28548e-15      19930.7      146.385
       5012.1898  4.59266e-13  3.32289e-15      20456.2      148.005
       5013.6665  4.70751e-13  3.35882e-15      20961.1      149.558
       5015.1433  4.84444e-13  3.40851e-15      21563.9      151.722
       5016.6200  4.89789e-13  3.42514e-15      21794.8      152.413
       5018.0967  4.96624e-13  3.44834e-15      22093.0      153.404
       5019.5735  4.96356e-13  3.44932e-15      22077.5      153.423
       5021.0502  4.98908e-13  3.46038e-15      22188.9      153.900
       5022.5269  5.01969e-13  3.47049e-15      22320.6      154.319
       5024.0037  5.00951e-13  3.46974e-15      22274.3      154.278
       5025.4804  5.06935e-13  3.48871e-15      22542.0      155.133
       5026.9571  5.07858e-13  3.48971e-15      22588.5      155.215
       5028.4339  4.94528e-13  3.44714e-15      22000.9      153.359
       5029.9106  4.58857e-13  3.32903e-15      20418.9      148.140
       5031.3873  4.19459e-13  3.19121e-15      18670.2      142.041
       5032.8641  3.77974e-13  3.04247e-15      16826.2      135.441
       5034.3408  3.44505e-13  2.91286e-15      15338.2      129.688
       5035.8176  3.17269e-13  2.80015e-15      14127.4      124.685
       5037.2943  2.89554e-13  2.68421e-15      12893.6      119.525
       5038.7710  2.75163e-13  2.61892e-15      12253.0      116.620
       5040.2478  2.60997e-13  2.55466e-15      11622.1      113.758
       5041.7245  2.48897e-13  2.50004e-15      11083.2      111.325
       5043.2012  2.42135e-13  2.47751e-15      10782.0      110.321
       5044.6780  2.35183e-13  2.44932e-15      10472.3      109.064
       5046.1547  2.28818e-13  2.42149e-15      10188.8      107.825
       5047.6314  2.26845e-13  2.40732e-15      10100.9      107.192
       5049.1082  2.19833e-13  2.37016e-15      9788.46      105.536
       5050.5849  2.16416e-13  2.35507e-15      9636.98      104.871
       5052.0617  2.08362e-13  2.31551e-15      9277.69      103.102
       5053.5384  2.00386e-13  2.27867e-15      8921.96      101.455
       5055.0151  1.87869e-13  2.21757e-15      8363.02      98.7153
       5056.4919  1.81636e-13  2.18944e-15      8083.90      97.4435
       5057.9686  1.80958e-13  2.18390e-15      8052.08      97.1771
       5059.4453  1.80312e-13  2.18334e-15      8021.69      97.1322
       5060.9221  1.78217e-13  2.17165e-15      7926.42      96.5869
       5062.3988  1.76018e-13  2.15559e-15      7826.12      95.8421
       5063.8755  1.70643e-13  2.12489e-15      7585.42      94.4555
       5065.3523  1.68163e-13  2.11150e-15      7473.48      93.8391
       5066.8290  1.67482e-13  2.10516e-15      7440.80      93.5271
       5068.3058  1.64633e-13  2.08926e-15      7312.24      92.7955
       5069.7825  1.59536e-13  2.06338e-15      7083.68      91.6178
       5071.2592  1.58658e-13  2.06091e-15      7042.70      91.4820
       5072.7360  1.55056e-13  2.03845e-15      6878.90      90.4340
       5074.2127  1.51352e-13  2.01865e-15      6708.21      89.4705
       5075.6894  1.47826e-13  2.00139e-15      6543.62      88.5929
       5077.1662  1.44895e-13  1.98362e-15      6405.69      87.6942
       5078.6429  1.42287e-13  1.96533e-15      6282.31      86.7740
       5080.1196  1.37369e-13  1.93380e-15      6057.62      85.2756
       5081.5964  1.32660e-13  1.91209e-15      5842.67      84.2132
       5083.0731  1.28595e-13  1.89113e-15      5657.02      83.1927
       5084.5499  1.25642e-13  1.87482e-15      5521.30      82.3882
       5086.0266  1.24151e-13  1.86930e-15      5450.58      82.0674
       5087.5033  1.23067e-13  1.86502e-15      5397.76      81.8003
       5088.9801  1.23169e-13  1.86937e-15      5397.00      81.9118
       5090.4568  1.24527e-13  1.87851e-15      5451.21      82.2322
       5091.9335  1.24316e-13  1.87772e-15      5436.95      82.1221
       5093.4103  1.23719e-13  1.87314e-15      5406.21      81.8513
       5094.8870  1.24503e-13  1.87747e-15      5435.78      81.9699
       5096.3637  1.22007e-13  1.85874e-15      5322.08      81.0802
       5097.8405  1.23633e-13  1.86573e-15      5388.57      81.3182
       5099.3172  1.24331e-13  1.86971e-15      5413.99      81.4163
       5100.7940  1.22000e-13  1.86186e-15      5306.90      80.9895
       5102.2707  1.22341e-13  1.86758e-15      5316.05      81.1513
       5103.7474  1.20964e-13  1.86097e-15      5252.10      80.8009
       5105.2242  1.20318e-13  1.85530e-15      5221.99      80.5232
       5106.7009  1.20222e-13  1.85228e-15      5217.52      80.3873
       5108.1776  1.22797e-13  1.86758e-15      5328.99      81.0466
       5109.6544  1.23570e-13  1.87507e-15      5362.20      81.3672
       5111.1311  1.22045e-13  1.86555e-15      5295.72      80.9492
       5112.6078  1.21180e-13  1.86116e-15      5257.91      80.7540
       5114.0846  1.22658e-13  1.87378e-15      5322.19      81.3042
       5115.5613  1.27207e-13  1.90313e-15      5520.15      82.5861
       5117.0381  1.34505e-13  1.94935e-15      5837.88      84.6071
       5118.5148  1.38196e-13  1.97008e-15      6000.00      85.5341
       5119.9915  1.35318e-13  1.94892e-15      5876.91      84.6425
       5121.4683  1.28887e-13  1.90850e-15      5599.40      82.9137
       5122.9450  1.20954e-13  1.85782e-15      5256.47      80.7378
       5124.4217  1.19186e-13  1.84236e-15      5181.26      80.0915
       5125.8985  1.29750e-13  1.90509e-15      5642.34      82.8451
       5127.3752  1.52041e-13  2.03720e-15      6614.16      88.6232
       5128.8519  1.79760e-13  2.19257e-15      7823.18      95.4210
       5130.3287  2.02683e-13  2.31353e-15      8825.77      100.742
       5131.8054  2.15234e-13  2.37379e-15      9379.09      103.441
       5133.2821  2.24590e-13  2.41739e-15      9793.87      105.417
       5134.7589  2.30675e-13  2.44621e-15      10066.5      106.751
       5136.2356  2.32046e-13  2.45138e-15      10133.7      107.054
       5137.7124  2.31293e-13  2.44431e-15      10108.1      106.823
       5139.1891  2.23818e-13  2.40459e-15      9788.54      105.163
       5140.6658  2.13082e-13  2.35110e-15      9325.76      102.898
       5142.1426  2.01336e-13  2.29146e-15      8818.10      100.361
       5143.6193  1.86697e-13  2.21823e-15      8182.86      97.2244
       5145.0960  1.78480e-13  2.17626e-15      7828.39      95.4541
       5146.5728  1.75256e-13  2.15662e-15      7692.56      94.6612
       5148.0495  1.75652e-13  2.15780e-15      7715.54      94.7822
       5149.5262  1.87469e-13  2.21997e-15      8240.63      97.5836
       5151.0030  2.15649e-13  2.35984e-15      9486.08      103.806
       5152.4797  2.64259e-13  2.58308e-15      11633.3      113.713
       5153.9565  3.31058e-13  2.86185e-15      14595.2      126.169
       5155.4332  4.04700e-13  3.14252e-15      17879.7      138.837
       5156.9099  4.62845e-13  3.34486e-15      20503.1      148.171
       5158.3867  5.02522e-13  3.47086e-15      22328.5      154.220
       5159.8634  5.27377e-13  3.54470e-15      23509.4      158.016
       5161.3401  5.40779e-13  3.57888e-15      24185.5      160.060
       5162.8169  5.55496e-13  3.61510e-15      24924.5      162.205
       5164.2936  5.61300e-13  3.62289e-15      25266.7      163.083
       5165.7703  5.54482e-13  3.59249e-15      25040.6      162.238
       5167.2471  5.42098e-13  3.54337e-15      24560.6      160.538
       5168.7238  5.26857e-13  3.48920e-15      23947.0      158.593
       5170.2006  5.18111e-13  3.45536e-15      23626.4      157.568
       5171.6773  5.16141e-13  3.44299e-15      23616.4      157.536
       5173.1540  5.12019e-13  3.42638e-15      23507.3      157.309
       5174.6308  5.08992e-13  3.41719e-15      23447.5      157.418
       5176.1075  5.15386e-13  3.43863e-15      23821.2      158.934
       5177.5842  5.23778e-13  3.46059e-15      24289.7      160.481
       5179.0610  5.20815e-13  3.44413e-15      24232.4      160.248
       5180.5377  5.04269e-13  3.38097e-15      23540.3      157.831
       5182.0144  4.90629e-13  3.32354e-15      22979.3      155.663
       5183.4912  4.80065e-13  3.28073e-15      22555.9      154.145
       5184.9679  4.74488e-13  3.26133e-15      22350.0      153.620
       5186.4447  4.66146e-13  3.23746e-15      21998.4      152.782
       5187.9214  4.52705e-13  3.19340e-15      21393.1      150.908
       5189.3981  4.35114e-13  3.13368e-15      20582.4      148.234
       5190.8749  4.22897e-13  3.08954e-15      20020.1      146.260
       5192.3516  4.19627e-13  3.07491e-15      19880.9      145.682
       5193.8283  4.18845e-13  3.07108e-15      19859.4      145.614
       5195.3051  4.05105e-13  3.02361e-15      19223.0      143.476
       5196.7818  3.95983e-13  2.99413e-15      18804.9      142.188
       5198.2585  3.91433e-13  2.97783e-15      18603.4      141.525
       5199.7353  3.81187e-13  2.94320e-15      18130.6      139.989
       5201.2120  3.72072e-13  2.90611e-15      17709.2      138.320
       5202.6888  3.54829e-13  2.83940e-15      16895.9      135.204
       5204.1655  3.35081e-13  2.76141e-15      15962.4      131.547
       5205.6422  3.15643e-13  2.68145e-15      15042.8      127.791
       5207.1190  3.00374e-13  2.62123e-15      14320.3      124.967
       5208.5957  2.70100e-13  2.49482e-15      12881.6      118.984
       5210.0724  2.37453e-13  2.35483e-15      11328.8      112.348
       5211.5492  2.18618e-13  2.27293e-15      10433.8      108.478
       5213.0259  2.04996e-13  2.20788e-15      9786.92      105.409
       5214.5026  2.01792e-13  2.18910e-15      9636.67      104.542
       5215.9794  1.97711e-13  2.16599e-15      9444.48      103.467
       5217.4561  2.01822e-13  2.18537e-15      9642.45      104.410
       5218.9329  2.15471e-13  2.25839e-15      10294.1      107.894
       5220.4096  2.40187e-13  2.37410e-15      11472.9      113.403
       5221.8863  2.69735e-13  2.50099e-15      12880.9      119.433
       5223.3631  2.92416e-13  2.59124e-15      13958.2      123.690
       5224.8398  3.08114e-13  2.64931e-15      14699.2      126.391
       5226.3165  3.14868e-13  2.67366e-15      15011.5      127.468
       5227.7933  3.18406e-13  2.69266e-15      15168.2      128.273
       5229.2700  3.28591e-13  2.73659e-15      15639.9      130.253
       5230.7467  3.29533e-13  2.74033e-15      15671.2      130.318
       5232.2235  3.40052e-13  2.78326e-15      16156.4      132.237
       5233.7002  3.44537e-13  2.80280e-15      16353.8      133.038
       5235.1769  3.45392e-13  2.80861e-15      16378.0      133.180
       5236.6537  3.46159e-13  2.81528e-15      16398.1      133.364
       5238.1304  3.43826e-13  2.80880e-15      16273.0      132.939
       5239.6072  3.42624e-13  2.80797e-15      16201.6      132.781
       5241.0839  3.37744e-13  2.78875e-15      15956.6      131.753
       5242.5606  3.41137e-13  2.80118e-15      16102.7      132.224
       5244.0374  3.32612e-13  2.76961e-15      15686.7      130.621
       5245.5141  3.24215e-13  2.73982e-15      15278.1      129.110
       5246.9908  2.95719e-13  2.62561e-15      13923.9      123.626
       5248.4676  2.76418e-13  2.54516e-15      13006.0      119.755
       5249.9443  2.62551e-13  2.48543e-15      12347.5      116.887
       5251.4210  2.54130e-13  2.45221e-15      11945.5      115.267
       5252.8978  2.47834e-13  2.42108e-15      11643.1      113.741
       5254.3745  2.40640e-13  2.39167e-15      11300.7      112.315
       5255.8513  2.40769e-13  2.39461e-15      11303.9      112.425
       5257.3280  2.45225e-13  2.41525e-15      11511.4      113.377
       5258.8047  2.58519e-13  2.47295e-15      12135.2      116.083
       5260.2815  2.82234e-13  2.57087e-15      13249.0      120.686
       5261.7582  3.14423e-13  2.69567e-15      14760.9      126.551
       5263.2349  3.40965e-13  2.79767e-15      16008.9      131.355
       5264.7117  3.63855e-13  2.87999e-15      17087.0      135.247
       5266.1884  3.77382e-13  2.93060e-15      17725.4      137.648
       5267.6651  3.81636e-13  2.94636e-15      17925.8      138.394
       5269.1419  3.91499e-13  2.97914e-15      18389.5      139.936
       5270.6186  4.04666e-13  3.02903e-15      19006.8      142.271
       5272.0954  4.15479e-13  3.07029e-15      19511.6      144.186
       5273.5721  4.28340e-13  3.11676e-15      20112.1      146.343
       5275.0488  4.33515e-13  3.13734e-15      20350.8      147.279
       5276.5256  4.36829e-13  3.15036e-15      20502.1      147.859
       5278.0023  4.33147e-13  3.14087e-15      20324.1      147.376
       5279.4790  4.26409e-13  3.11994e-15      20001.6      146.348
       5280.9558  4.22070e-13  3.10444e-15      19791.2      145.569
       5282.4325  4.12254e-13  3.06645e-15      19323.9      143.737
       5283.9092  4.08036e-13  3.05308e-15      19118.7      143.054
       5285.3860  3.88182e-13  2.98651e-15      18180.1      139.870
       5286.8627  3.64692e-13  2.90167e-15      17072.1      135.834
       5288.3395  3.33689e-13  2.78528e-15      15613.6      130.326
       5289.8162  3.05508e-13  2.67601e-15      14288.4      125.155
       5291.2929  2.83473e-13  2.58528e-15      13251.8      120.856
       5292.7697  2.67173e-13  2.51574e-15      12484.0      117.551
       5294.2464  2.50698e-13  2.44470e-15      11708.8      114.179
       5295.7231  2.45877e-13  2.42036e-15      11478.3      112.990
       5297.1999  2.44023e-13  2.40764e-15      11386.7      112.346
       5298.6766  2.55991e-13  2.46240e-15      11940.8      114.860
       5300.1533  2.85319e-13  2.59072e-15      13295.7      120.726
       5301.6301  3.30158e-13  2.77473e-15      15367.0      129.148
       5303.1068  3.81237e-13  2.97086e-15      17722.1      138.103
       5304.5836  4.19410e-13  3.11125e-15      19472.4      144.449
       5306.0603  4.39781e-13  3.18250e-15      20393.5      147.579
       5307.5370  4.52736e-13  3.22954e-15      20969.0      149.580
       5309.0138  4.64562e-13  3.27122e-15      21491.8      151.335
       5310.4905  4.80092e-13  3.32408e-15      22185.8      153.611
       5311.9672  4.93976e-13  3.37132e-15      22803.1      155.628
       5313.4440  5.01810e-13  3.39756e-15      23140.2      156.673
       5314.9207  5.04220e-13  3.40752e-15      23227.5      156.971
       5316.3974  5.00230e-13  3.39653e-15      23021.6      156.315
       5317.8742  3.89015e-13  3.00772e-15      17886.1      138.289
       5319.3509  3.08599e-13  2.72245e-15      14175.1      125.053
       5320.8276  3.01797e-13  2.69272e-15      13849.4      123.568
       5322.3044  2.94977e-13  2.66248e-15      13523.4      122.063
       5323.7811  3.94507e-13  3.02229e-15      18064.6      138.392
       5325.2579  4.74860e-13  3.31641e-15      21717.8      151.676
       5326.7346  4.67948e-13  3.29412e-15      21375.9      150.476
       5328.2113  4.48104e-13  3.22747e-15      20445.5      147.259
       5329.6881  4.12830e-13  3.10844e-15      18814.0      141.662
       5331.1648  3.77737e-13  2.98623e-15      17205.0      136.015
       5332.6415  3.53020e-13  2.89564e-15      16069.0      131.806
       5334.1183  3.30929e-13  2.81341e-15      15053.8      127.980
       5335.5950  3.08915e-13  2.72636e-15      14043.4      123.941
       5337.0717  2.91528e-13  2.65337e-15      13244.4      120.545
       5338.5485  2.79038e-13  2.59999e-15      12668.8      118.044
       5340.0252  2.66700e-13  2.54530e-15      12100.8      115.487
       5341.5020  2.54919e-13  2.49553e-15      11558.9      113.155
       5342.9787  2.49909e-13  2.47568e-15      11324.4      112.183
       5344.4554  2.47200e-13  2.46519e-15      11194.4      111.636
       5345.9322  2.46608e-13  2.46241e-15      11160.5      111.439
       5347.4089  2.55290e-13  2.50106e-15      11545.9      113.115
       5348.8856  2.72595e-13  2.57761e-15      12320.7      116.502
       5350.3624  2.86265e-13  2.64010e-15      12930.2      119.249
       5351.8391  2.89472e-13  2.65635e-15      13066.6      119.906
       5353.3158  2.89976e-13  2.66038e-15      13080.9      120.011
       5354.7926  2.91356e-13  2.66740e-15      13138.0      120.280
       5356.2693  2.94434e-13  2.67990e-15      13271.6      120.796
       5357.7461  2.96352e-13  2.68984e-15      13352.7      121.196
       5359.2228  2.93831e-13  2.68088e-15      13233.9      120.745
       5360.6995  2.92849e-13  2.67515e-15      13185.4      120.447
       5362.1763  2.88265e-13  2.65181e-15      12975.4      119.363
       5363.6530  2.80674e-13  2.62025e-15      12631.0      117.917
       5365.1297  2.76306e-13  2.60039e-15      12431.9      117.000
       5366.6065  2.75905e-13  2.59793e-15      12411.4      116.866
       5368.0832  2.73342e-13  2.58431e-15      12293.6      116.230
       5369.5599  2.70346e-13  2.56946e-15      12156.4      115.539
       5371.0367  2.65412e-13  2.54701e-15      11932.2      114.507
       5372.5134  2.62905e-13  2.53959e-15      11817.1      114.150
       5373.9902  2.56087e-13  2.51403e-15      11508.3      112.979
       5375.4669  2.36425e-13  2.42599e-15      10622.6      109.000
       5376.9436  2.20008e-13  2.34844e-15      9883.00      105.494
       5378.4204  2.04846e-13  2.27587e-15      9201.82      102.234
       5379.8971  1.94638e-13  2.22081e-15      8743.16      99.7591
       5381.3738  1.86211e-13  2.17512e-15      8364.49      97.7052
       5382.8506  1.81516e-13  2.15126e-15      8153.50      96.6323
       5384.3273  1.77117e-13  2.13126e-15      7955.80      95.7327
       5385.8040  1.74050e-13  2.11215e-15      7817.93      94.8732
       5387.2808  1.73513e-13  2.10937e-15      7793.74      94.7471
       5388.7575  1.67395e-13  2.07770e-15      7518.84      93.3235
       5390.2343  1.66720e-13  2.07120e-15      7488.46      93.0306
       5391.7110  1.68069e-13  2.07603e-15      7548.97      93.2464
       5393.1877  1.65691e-13  2.06571e-15      7442.08      92.7818
       5394.6645  1.73229e-13  2.10428e-15      7780.53      94.5132
       5396.1412  1.72272e-13  2.09540e-15      7737.49      94.1135
       5397.6179  1.78573e-13  2.13034e-15      8020.37      95.6814
       5399.0947  1.81955e-13  2.14808e-15      8172.20      96.4776
       5400.5714  1.81886e-13  2.15142e-15      8169.00      96.6262
       5402.0481  1.83983e-13  2.15725e-15      8263.11      96.8872
       5403.5249  1.82194e-13  2.14579e-15      8182.69      96.3715
       5405.0016  1.82759e-13  2.14814e-15      8211.03      96.5119
       5406.4784  1.89636e-13  2.18399e-15      8518.31      98.1033
       5407.9551  1.89511e-13  2.18481e-15      8511.05      98.1208
       5409.4318  1.95326e-13  2.21845e-15      8770.46      99.6119
       5410.9086  2.01622e-13  2.24913e-15      9051.40      100.970
       5412.3853  2.05457e-13  2.27126e-15      9221.76      101.943
       5413.8620  2.01459e-13  2.25440e-15      9040.53      101.167
       5415.3388  1.82379e-13  2.16027e-15      8182.70      96.9239
       5416.8155  2.23775e-13  2.41361e-15      10038.0      108.269
       5418.2922  2.66710e-14  1.67682e-16      1196.17      7.52036
