# N Sco 2012
# 2012-07-07T 1:28:40.3
# 
#     Wavelength       Flux    Uncertainty       Counts  Uncertainty
# 
       5623.0430  5.09889e-14  1.60029e-15      1072.16      33.6497
       5624.1434  5.36999e-14  1.63170e-15      1129.60      34.3237
       5625.2439  5.30692e-14  1.61293e-15      1116.77      33.9421
       5626.3443  5.44772e-14  1.63722e-15      1146.85      34.4667
       5627.4448  4.94638e-14  1.57492e-15      1041.72      33.1681
       5628.5452  5.18046e-14  1.60267e-15      1091.45      33.7658
       5629.6457  5.96521e-14  1.82142e-15      1108.46      33.8458
       5630.7461  5.63632e-14  1.80187e-15      1032.43      33.0055
       5631.8466  6.12002e-14  1.87098e-15      1121.47      34.2850
       5632.9470  6.45427e-14  1.90978e-15      1183.18      35.0097
       5634.0475  6.30209e-14  1.83940e-15      1206.45      35.2129
       5635.1479  6.36111e-14  1.85223e-15      1209.83      35.2280
       5636.2484  6.26786e-14  1.85376e-15      1184.29      35.0261
       5637.3488  6.56040e-14  1.90513e-15      1231.39      35.7593
       5638.4492  6.39488e-14  1.88638e-15      1192.34      35.1720
       5639.5497  6.59916e-14  1.92297e-15      1222.19      35.6141
       5640.6501  7.23791e-14  2.01799e-15      1331.45      37.1219
       5641.7506  7.45958e-14  2.04993e-15      1371.80      37.6976
       5642.8510  7.99980e-14  2.12268e-15      1471.72      39.0509
       5643.9515  8.63025e-14  2.19501e-15      1588.34      40.3976
       5645.0519  8.93074e-14  2.22663e-15      1644.29      40.9957
       5646.1524  9.08529e-14  2.25356e-15      1673.42      41.5084
       5647.2528  9.46312e-14  2.29439e-15      1744.00      42.2843
       5648.3533  9.87995e-14  2.33546e-15      1821.86      43.0659
       5649.4537  1.02885e-13  2.37939e-15      1898.37      43.9033
       5650.5542  1.05818e-13  2.41626e-15      1953.80      44.6134
       5651.6546  1.08843e-13  2.45606e-15      2011.03      45.3793
       5652.7551  1.10906e-13  2.47256e-15      2050.59      45.7165
       5653.8555  1.14953e-13  2.51581e-15      2126.94      46.5493
       5654.9559  1.18687e-13  2.55343e-15      2197.58      47.2789
       5656.0564  1.20058e-13  2.57504e-15      2224.55      47.7130
       5657.1568  1.18507e-13  2.55153e-15      2197.55      47.3149
       5658.2573  1.20160e-13  2.56932e-15      2230.41      47.6919
       5659.3577  1.22553e-13  2.59323e-15      2277.44      48.1907
       5660.4582  1.21467e-13  2.57641e-15      2260.02      47.9367
       5661.5586  1.21403e-13  2.57800e-15      2261.78      48.0290
       5662.6591  1.22430e-13  2.59031e-15      2284.05      48.3246
       5663.7595  1.23465e-13  2.59646e-15      2306.65      48.5084
       5664.8600  1.25328e-13  2.61221e-15      2344.82      48.8729
       5665.9604  1.25822e-13  2.61539e-15      2357.48      49.0037
       5667.0609  1.23891e-13  2.59368e-15      2324.95      48.6731
       5668.1613  1.23171e-13  2.58637e-15      2315.07      48.6122
       5669.2618  1.27520e-13  2.62928e-15      2400.66      49.4982
       5670.3622  1.30754e-13  2.65948e-15      2465.12      50.1394
       5671.4627  1.32874e-13  2.67572e-15      2508.71      50.5184
       5672.5631  1.34558e-13  2.68669e-15      2544.04      50.7962
       5673.6635  1.33065e-13  2.67555e-15      2519.21      50.6539
       5674.7640  1.35020e-13  2.69555e-15      2559.62      51.1004
       5675.8644  1.38329e-13  2.72487e-15      2625.85      51.7254
       5676.9649  1.41106e-13  2.74707e-15      2682.18      52.2171
       5678.0653  1.41936e-13  2.75561e-15      2701.66      52.4513
       5679.1658  1.43554e-13  2.77573e-15      2736.32      52.9091
       5680.2662  1.47464e-13  2.80690e-15      2814.72      53.5767
       5681.3667  1.46255e-13  2.78835e-15      2795.77      53.3012
       5682.4671  1.46192e-13  2.78631e-15      2799.09      53.3487
       5683.5676  1.45273e-13  2.77490e-15      2785.94      53.2150
       5684.6680  1.44444e-13  2.76507e-15      2774.23      53.1069
       5685.7685  1.44930e-13  2.76505e-15      2787.60      53.1834
       5686.8689  1.43285e-13  2.75057e-15      2759.82      52.9786
       5687.9694  1.38767e-13  2.71081e-15      2676.48      52.2850
       5689.0698  1.39644e-13  2.71428e-15      2697.07      52.4234
       5690.1702  1.38293e-13  2.69824e-15      2674.48      52.1819
       5691.2707  1.35468e-13  2.66787e-15      2623.26      51.6619
       5692.3711  1.35296e-13  2.66899e-15      2623.23      51.7486
       5693.4716  1.36101e-13  2.66969e-15      2642.14      51.8270
       5694.5720  1.38425e-13  2.69070e-15      2690.64      52.3005
       5695.6725  1.34855e-13  2.65634e-15      2624.58      51.6984
       5696.7729  1.30111e-13  2.60957e-15      2536.09      50.8652
       5697.8734  1.32021e-13  2.62600e-15      2578.39      51.2862
       5698.9738  1.35246e-13  2.65290e-15      2646.49      51.9119
       5700.0743  1.30802e-13  2.60643e-15      2564.44      51.1003
       5701.1747  1.27047e-13  2.56817e-15      2495.54      50.4458
       5702.2752  1.26457e-13  2.55692e-15      2488.55      50.3176
       5703.3756  1.24646e-13  2.53367e-15      2457.35      49.9506
       5704.4761  1.21647e-13  2.50586e-15      2401.88      49.4772
       5705.5765  1.22969e-13  2.51764e-15      2430.95      49.7708
       5706.6770  1.25321e-13  2.53854e-15      2480.35      50.2429
       5707.7774  1.26845e-13  2.55410e-15      2513.47      50.6101
       5708.8778  1.33042e-13  2.61285e-15      2639.34      51.8349
       5709.9783  1.32847e-13  2.60736e-15      2638.58      51.7867
       5711.0787  1.32098e-13  2.59809e-15      2626.76      51.6629
       5712.1792  1.33841e-13  2.61433e-15      2664.53      52.0465
       5713.2796  1.35622e-13  2.63030e-15      2702.99      52.4229
       5714.3801  1.37055e-13  2.64142e-15      2734.59      52.7031
       5715.4805  1.37834e-13  2.65256e-15      2753.20      52.9842
       5716.5810  1.38347e-13  2.65325e-15      2766.53      53.0570
       5717.6814  1.39858e-13  2.67062e-15      2799.88      53.4646
       5718.7819  1.42939e-13  2.68874e-15      2865.86      53.9080
       5719.8823  1.39671e-13  2.65986e-15      2804.12      53.4011
       5720.9828  1.40075e-13  2.66215e-15      2814.80      53.4960
       5722.0832  1.40207e-13  2.66221e-15      2820.26      53.5503
       5723.1837  1.37060e-13  2.63252e-15      2759.79      53.0075
       5724.2841  1.41755e-13  2.67772e-15      2857.38      53.9755
       5725.3845  1.39235e-13  2.65199e-15      2809.68      53.5153
       5726.4850  1.43995e-13  2.69363e-15      2909.08      54.4186
       5727.5854  1.44243e-13  2.69060e-15      2918.84      54.4459
       5728.6859  1.44639e-13  2.69693e-15      2932.47      54.6788
       5729.7863  1.51897e-13  2.75649e-15      3085.54      55.9935
       5730.8868  1.50923e-13  2.74818e-15      3071.62      55.9317
       5731.9872  1.57445e-13  2.79762e-15      3210.50      57.0471
       5733.0877  1.59027e-13  2.81053e-15      3249.05      57.4213
       5734.1881  1.66220e-13  2.86995e-15      3403.07      58.7574
       5735.2886  1.70957e-13  2.90897e-15      3507.47      59.6823
       5736.3890  1.72353e-13  2.92000e-15      3543.63      60.0362
       5737.4895  1.70971e-13  2.90158e-15      3522.76      59.7855
       5738.5899  1.66381e-13  2.85547e-15      3435.54      58.9616
       5739.6904  1.68015e-13  2.86920e-15      3476.71      59.3719
       5740.7908  1.72167e-13  2.89968e-15      3570.18      60.1301
       5741.8913  1.69755e-13  2.87826e-15      3526.29      59.7896
       5742.9917  1.71316e-13  2.88903e-15      3564.57      60.1121
       5744.0921  1.67262e-13  2.85844e-15      3485.94      59.5734
       5745.1926  1.69863e-13  2.87621e-15      3546.03      60.0432
       5746.2930  1.66145e-13  2.83936e-15      3474.99      59.3866
       5747.3935  1.66580e-13  2.84120e-15      3490.63      59.5364
       5748.4939  1.68170e-13  2.85350e-15      3530.83      59.9109
       5749.5944  1.67033e-13  2.83564e-15      3513.57      59.6483
       5750.6948  1.69081e-13  2.85557e-15      3561.75      60.1536
       5751.7953  1.71525e-13  2.87269e-15      3617.26      60.5817
       5752.8957  1.64493e-13  2.81474e-15      3472.82      59.4255
       5753.9962  1.67163e-13  2.82952e-15      3533.11      59.8037
       5755.0966  1.65183e-13  2.81317e-15      3495.12      59.5242
       5756.1971  1.65147e-13  2.81333e-15      3498.16      59.5922
       5757.2975  1.64868e-13  2.80809e-15      3495.54      59.5370
       5758.3980  1.62498e-13  2.78789e-15      3448.56      59.1650
       5759.4984  1.60817e-13  2.77046e-15      3416.20      58.8524
       5760.5988  1.58494e-13  2.74830e-15      3370.07      58.4373
       5761.6993  1.56944e-13  2.73405e-15      3340.30      58.1898
       5762.7997  1.55953e-13  2.72811e-15      3322.37      58.1187
       5763.9002  1.56196e-13  2.72648e-15      3331.05      58.1451
       5765.0006  1.55935e-13  2.72334e-15      3329.74      58.1525
       5766.1011  1.51333e-13  2.68208e-15      3235.60      57.3449
       5767.2015  1.51352e-13  2.68029e-15      3240.16      57.3800
       5768.3020  1.52530e-13  2.68736e-15      3269.25      57.5995
       5769.4024  1.52215e-13  2.68320e-15      3265.94      57.5712
       5770.5029  1.49305e-13  2.65712e-15      3206.96      57.0730
       5771.6033  1.43411e-13  2.60565e-15      3083.54      56.0254
       5772.7038  1.39168e-13  2.56829e-15      2995.88      55.2879
       5773.8042  1.37539e-13  2.54611e-15      2964.56      54.8799
       5774.9047  1.35263e-13  2.52174e-15      2919.38      54.4266
       5776.0051  1.33516e-13  2.50598e-15      2885.77      54.1636
       5777.1056  1.30480e-13  2.47804e-15      2824.39      53.6401
       5778.2060  1.26594e-13  2.43813e-15      2744.37      52.8552
       5779.3064  1.16420e-13  2.33826e-15      2527.60      50.7662
       5780.4069  1.07520e-13  2.24783e-15      2338.15      48.8818
       5781.5073  1.09572e-13  2.26345e-15      2386.57      49.2996
       5782.6078  1.15693e-13  2.32515e-15      2523.99      50.7262
       5783.7082  1.19776e-13  2.36499e-15      2618.19      51.6963
       5784.8087  1.19962e-13  2.36398e-15      2627.60      51.7796
       5785.9091  1.18075e-13  2.34355e-15      2591.70      51.4399
       5787.0096  1.17321e-13  2.33628e-15      2581.02      51.3970
       5788.1100  1.17602e-13  2.33576e-15      2592.78      51.4965
       5789.2105  1.18859e-13  2.34406e-15      2626.14      51.7913
       5790.3109  1.19797e-13  2.34733e-15      2653.81      51.9994
       5791.4114  1.19697e-13  2.34006e-15      2658.59      51.9754
       5792.5118  1.19588e-13  2.33847e-15      2662.96      52.0725
       5793.6123  1.17590e-13  2.31836e-15      2625.52      51.7638
       5794.7127  1.14757e-13  2.28717e-15      2569.03      51.2019
       5795.8131  1.12349e-13  2.26085e-15      2521.35      50.7382
       5796.9136  1.12002e-13  2.25015e-15      2519.60      50.6192
       5798.0140  1.11777e-13  2.24624e-15      2520.41      50.6494
       5799.1145  1.14482e-13  2.27058e-15      2587.18      51.3128
       5800.2149  1.17485e-13  2.29682e-15      2661.37      52.0294
       5801.3154  1.16809e-13  2.28932e-15      2652.57      51.9873
       5802.4158  1.16286e-13  2.27955e-15      2647.32      51.8953
       5803.5163  1.14716e-13  2.26539e-15      2617.93      51.6984
       5804.6167  1.13051e-13  2.24605e-15      2586.20      51.3814
       5805.7172  1.11530e-13  2.22931e-15      2557.39      51.1183
       5806.8176  1.10846e-13  2.21881e-15      2546.89      50.9811
       5807.9181  1.12455e-13  2.22836e-15      2588.91      51.3007
       5809.0185  1.11581e-13  2.21897e-15      2574.02      51.1884
       5810.1190  1.13488e-13  2.23593e-15      2622.65      51.6715
       5811.2194  1.14111e-13  2.24083e-15      2641.50      51.8720
       5812.3199  1.12355e-13  2.22580e-15      2605.31      51.6124
       5813.4203  1.11950e-13  2.21936e-15      2599.30      51.5300
       5814.5207  1.12663e-13  2.22108e-15      2619.21      51.6361
       5815.6212  1.13348e-13  2.22545e-15      2638.49      51.8033
       5816.7216  1.12974e-13  2.21967e-15      2632.92      51.7304
       5817.8221  1.10991e-13  2.20440e-15      2589.83      51.4367
       5818.9225  1.10300e-13  2.19457e-15      2576.83      51.2696
       5820.0230  1.12430e-13  2.21314e-15      2629.83      51.7673
       5821.1234  1.11345e-13  2.20548e-15      2607.80      51.6543
       5822.2239  1.11124e-13  2.20481e-15      2606.13      51.7082
       5823.3243  1.09494e-13  2.18488e-15      2570.98      51.3022
       5824.4248  1.06414e-13  2.14834e-15      2501.47      50.5006
       5825.5252  1.04855e-13  2.12978e-15      2467.48      50.1187
       5826.6257  1.01843e-13  2.09925e-15      2399.45      49.4591
       5827.7261  1.00612e-13  2.09253e-15      2373.42      49.3623
       5828.8266  1.00150e-13  2.07993e-15      2365.52      49.1275
       5829.9270  9.54204e-14  2.03399e-15      2256.83      48.1067
       5831.0274  9.41899e-14  2.02283e-15      2230.78      47.9085
       5832.1279  9.42151e-14  2.01453e-15      2234.13      47.7707
       5833.2283  8.95629e-14  1.96436e-15      2126.93      46.6494
       5834.3288  8.97420e-14  1.96177e-15      2134.70      46.6648
       5835.4292  8.51635e-14  1.91210e-15      2029.08      45.5571
       5836.5297  7.93601e-14  1.84681e-15      1893.97      44.0752
       5837.6301  7.23298e-14  1.77004e-15      1729.15      42.3154
       5838.7306  6.25349e-14  1.65033e-15      1497.62      39.5230
       5839.8310  5.40669e-14  1.52607e-15      1297.00      36.6084
       5840.9315  5.17237e-14  1.49430e-15      1243.00      35.9102
       5842.0319  5.36061e-14  1.52430e-15      1290.55      36.6971
       5843.1324  5.84241e-14  1.58109e-15      1409.08      38.1328
       5844.2328  6.03965e-14  1.61066e-15      1459.75      38.9289
       5845.3333  6.02549e-14  1.59819e-15      1459.46      38.7103
       5846.4337  6.31466e-14  1.63534e-15      1532.77      39.6949
       5847.5342  6.83488e-14  1.70039e-15      1662.65      41.3637
       5848.6346  8.05018e-14  1.84947e-15      1962.59      45.0890
       5849.7350  8.99564e-14  1.94313e-15      2197.62      47.4704
       5850.8355  9.63938e-14  2.00374e-15      2359.94      49.0561
       5851.9359  1.08446e-13  2.12000e-15      2660.63      52.0123
       5853.0364  1.16052e-13  2.19121e-15      2853.18      53.8716
       5854.1368  1.21454e-13  2.23638e-15      2992.30      55.0983
       5855.2373  1.25616e-13  2.27272e-15      3101.47      56.1136
       5856.3377  1.24690e-13  2.26584e-15      3084.51      56.0512
       5857.4382  1.27445e-13  2.28697e-15      3158.11      56.6715
       5858.5386  1.21952e-13  2.23859e-15      3027.18      55.5681
       5859.6391  1.18961e-13  2.20540e-15      2957.87      54.8352
       5860.7395  1.13242e-13  2.15770e-15      2820.19      53.7356
       5861.8400  1.14292e-13  2.16101e-15      2850.70      53.9005
       5862.9404  1.12058e-13  2.13575e-15      2799.17      53.3503
       5864.0409  1.03136e-13  2.05056e-15      2580.14      51.2988
       5865.1413  9.01056e-14  1.92032e-15      2257.52      48.1119
       5866.2417  8.39534e-14  1.85940e-15      2106.50      46.6547
       5867.3422  7.87459e-14  1.79592e-15      1978.05      45.1124
       5868.4426  7.30298e-14  1.73152e-15      1836.44      43.5416
       5869.5431  7.21406e-14  1.71710e-15      1815.94      43.2232
       5870.6435  7.49937e-14  1.74917e-15      1889.74      44.0768
       5871.7440  8.21586e-14  1.82728e-15      2072.43      46.0926
       5872.8444  9.00920e-14  1.91198e-15      2274.90      48.2791
       5873.9449  1.02861e-13  2.03577e-15      2599.74      51.4526
       5875.0453  1.11614e-13  2.12123e-15      2823.67      53.6640
       5876.1458  1.25971e-13  2.24613e-15      3190.16      56.8821
       5877.2462  1.43560e-13  2.40027e-15      3639.36      60.8488
       5878.3467  1.68256e-13  2.58811e-15      4269.75      65.6770
       5879.4471  1.83794e-13  2.70749e-15      4668.63      68.7742
       5880.5476  2.07621e-13  2.87105e-15      5279.08      73.0010
       5881.6480  2.24641e-13  2.99019e-15      5717.69      76.1080
       5882.7485  2.38483e-13  3.07632e-15      6076.97      78.3901
       5883.8489  2.41289e-13  3.09028e-15      6155.53      78.8360
       5884.9493  2.37237e-13  3.06485e-15      6059.09      78.2770
       5886.0498  2.19029e-13  2.94533e-15      5600.73      75.3144
       5887.1502  1.91847e-13  2.75411e-15      4911.56      70.5092
       5888.2507  1.59934e-13  2.51830e-15      4099.47      64.5496
       5889.3511  1.46512e-13  2.42228e-15      3759.85      62.1616
       5890.4516  1.66691e-13  2.57316e-15      4282.74      66.1113
       5891.5520  2.12205e-13  2.89300e-15      5458.31      74.4134
       5892.6525  2.21983e-13  2.95175e-15      5716.27      76.0105
       5893.7529  2.04352e-13  2.83361e-15      5267.84      73.0456
       5894.8534  1.78716e-13  2.65473e-15      4611.64      68.5034
       5895.9538  1.79396e-13  2.66068e-15      4633.83      68.7258
       5897.0543  2.16430e-13  2.90959e-15      5595.73      75.2266
       5898.1547  2.56644e-13  3.16531e-15      6641.54      81.9132
       5899.2552  2.71671e-13  3.25776e-15      7036.12      84.3741
       5900.3556  2.78976e-13  3.29585e-15      7230.64      85.4234
       5901.4560  2.79386e-13  3.29546e-15      7247.19      85.4834
       5902.5565  2.76946e-13  3.28076e-15      7189.74      85.1712
       5903.6569  2.77532e-13  3.28538e-15      7211.65      85.3704
       5904.7574  2.74888e-13  3.26918e-15      7149.40      85.0262
       5905.8578  2.78395e-13  3.28640e-15      7246.77      85.5466
       5906.9583  2.65899e-13  3.20685e-15      6927.86      83.5527
       5908.0587  2.59869e-13  3.16851e-15      6777.42      82.6353
       5909.1592  2.50373e-13  3.11146e-15      6537.54      81.2442
       5910.2596  2.43064e-13  3.06409e-15      6354.46      80.1048
       5911.3601  2.37816e-13  3.03131e-15      6225.01      79.3469
       5912.4605  2.33252e-13  2.99892e-15      6114.04      78.6081
       5913.5610  2.28249e-13  2.96485e-15      5992.37      77.8383
       5914.6614  2.18951e-13  2.90124e-15      5759.47      76.3165
       5915.7619  2.17005e-13  2.88698e-15      5719.37      76.0891
       5916.8623  2.11658e-13  2.84753e-15      5589.28      75.1953
       5917.9628  2.02881e-13  2.78609e-15      5367.91      73.7154
       5919.0632  2.00569e-13  2.77153e-15      5317.37      73.4772
       5920.1636  1.97401e-13  2.74535e-15      5244.49      72.9376
       5921.2641  1.93519e-13  2.71406e-15      5152.52      72.2629
       5922.3645  1.90864e-13  2.68994e-15      5093.85      71.7901
       5923.4650  1.85931e-13  2.65299e-15      4974.01      70.9728
       5924.5654  1.82762e-13  2.63317e-15      4900.53      70.6051
       5925.6659  1.80114e-13  2.60726e-15      4840.66      70.0712
       5926.7663  1.77904e-13  2.58888e-15      4791.69      69.7294
       5927.8668  1.77922e-13  2.58604e-15      4802.59      69.8040
       5928.9672  1.78740e-13  2.58494e-15      4834.70      69.9192
       5930.0677  1.76064e-13  2.56590e-15      4771.89      69.5439
       5931.1681  1.71173e-13  2.53200e-15      4648.34      68.7584
       5932.2686  1.71180e-13  2.52699e-15      4656.39      68.7386
       5933.3690  1.68353e-13  2.50585e-15      4587.09      68.2765
       5934.4695  1.65901e-13  2.48206e-15      4527.64      67.7387
       5935.5699  1.65289e-13  2.47313e-15      4517.69      67.5956
       5936.6703  1.62546e-13  2.45433e-15      4448.96      67.1761
       5937.7708  1.61688e-13  2.44367e-15      4430.15      66.9552
       5938.8712  1.64818e-13  2.46880e-15      4520.68      67.7150
       5939.9717  1.63518e-13  2.45530e-15      4490.29      67.4240
       5941.0721  1.60199e-13  2.42844e-15      4405.88      66.7881
       5942.1726  1.58740e-13  2.41599e-15      4373.69      66.5668
       5943.2730  1.57862e-13  2.40599e-15      4358.38      66.4265
       5944.3735  1.57318e-13  2.40050e-15      4352.30      66.4111
       5945.4739  1.53836e-13  2.37104e-15      4264.03      65.7204
       5946.5744  1.52935e-13  2.36497e-15      4246.96      65.6746
       5947.6748  1.54380e-13  2.37584e-15      4294.98      66.0978
       5948.7753  1.50267e-13  2.34490e-15      4188.21      65.3569
       5949.8757  1.47875e-13  2.31925e-15      4129.12      64.7606
       5950.9762  1.47662e-13  2.31680e-15      4130.73      64.8107
       5952.0766  1.46961e-13  2.30910e-15      4118.55      64.7119
       5953.1771  1.46840e-13  2.30740e-15      4122.59      64.7809
       5954.2775  1.47864e-13  2.31787e-15      4158.82      65.1923
       5955.3779  1.47863e-13  2.31145e-15      4166.28      65.1290
       5956.4784  1.45247e-13  2.28674e-15      4099.94      64.5486
       5957.5788  1.43493e-13  2.26915e-15      4057.73      64.1674
       5958.6793  1.43296e-13  2.26612e-15      4059.41      64.1967
       5959.7797  1.42283e-13  2.25862e-15      4037.53      64.0925
       5960.8802  1.44460e-13  2.27337e-15      4106.24      64.6198
       5961.9806  1.44142e-13  2.26460e-15      4104.12      64.4792
       5963.0811  1.43643e-13  2.25826e-15      4096.33      64.3998
       5964.1815  1.44572e-13  2.26314e-15      4127.87      64.6181
       5965.2820  1.44971e-13  2.26689e-15      4142.91      64.7820
       5966.3824  1.43950e-13  2.26144e-15      4115.98      64.6619
       5967.4829  1.44243e-13  2.26254e-15      4126.25      64.7225
       5968.5833  1.42694e-13  2.24692e-15      4083.70      64.3036
       5969.6838  1.42709e-13  2.25144e-15      4085.88      64.4607
       5970.7842  1.43093e-13  2.25504e-15      4098.65      64.5917
       5971.8846  1.43298e-13  2.25244e-15      4106.29      64.5452
       5972.9851  1.45001e-13  2.26473e-15      4156.98      64.9266
       5974.0855  1.48990e-13  2.29876e-15      4274.11      65.9453
       5975.1860  1.49451e-13  2.30357e-15      4290.61      66.1335
       5976.2864  1.50755e-13  2.30757e-15      4331.63      66.3034
       5977.3869  1.55319e-13  2.33934e-15      4466.97      67.2796
       5978.4873  1.57256e-13  2.35228e-15      4527.22      67.7198
       5979.5878  1.57347e-13  2.35000e-15      4534.60      67.7247
       5980.6882  1.58032e-13  2.35427e-15      4559.21      67.9203
       5981.7887  1.57872e-13  2.35243e-15      4559.51      67.9406
       5982.8891  1.55719e-13  2.33571e-15      4502.39      67.5337
       5983.9896  1.59071e-13  2.36192e-15      4604.85      68.3738
       5985.0900  1.62840e-13  2.38724e-15      4720.06      69.1961
       5986.1905  1.63237e-13  2.38785e-15      4737.68      69.3033
       5987.2909  1.63593e-13  2.38981e-15      4754.13      69.4495
       5988.3914  1.60887e-13  2.36885e-15      4681.51      68.9293
       5989.4918  1.60804e-13  2.36607e-15      4685.14      68.9369
       5990.5922  1.60797e-13  2.36369e-15      4691.22      68.9601
       5991.6927  1.60472e-13  2.36158e-15      4688.25      68.9943
       5992.7931  1.59360e-13  2.35185e-15      4662.29      68.8063
       5993.8936  1.56893e-13  2.32968e-15      4596.76      68.2564
       5994.9940  1.54063e-13  2.30648e-15      4520.65      67.6791
       5996.0945  1.52254e-13  2.29210e-15      4474.55      67.3619
       5997.1949  1.52193e-13  2.29103e-15      4478.93      67.4236
       5998.2954  1.52087e-13  2.29003e-15      4481.54      67.4803
       5999.3958  1.52040e-13  2.28539e-15      4485.58      67.4248
       6000.4963  1.51122e-13  2.27520e-15      4463.44      67.1987
       6001.5967  1.49649e-13  2.26615e-15      4424.65      67.0027
       6002.6972  1.48228e-13  2.25578e-15      4387.58      66.7715
       6003.7976  1.44557e-13  2.22495e-15      4283.97      65.9365
       6004.8981  1.39529e-13  2.18469e-15      4139.89      64.8208
       6005.9985  1.38102e-13  2.17172e-15      4102.27      64.5098
       6007.0989  1.33967e-13  2.13916e-15      3983.68      63.6109
       6008.1994  1.30098e-13  2.10662e-15      3872.45      62.7049
       6009.2998  1.27356e-13  2.08337e-15      3794.58      62.0740
       6010.4003  1.25849e-13  2.06973e-15      3753.37      61.7284
       6011.5007  1.27835e-13  2.08084e-15      3816.33      62.1208
       6012.6012  1.27722e-13  2.08118e-15      3817.15      62.1987
       6013.7016  1.26134e-13  2.06886e-15      3773.85      61.8989
       6014.8021  1.26101e-13  2.06620e-15      3777.62      61.8970
       6015.9025  1.24718e-13  2.05194e-15      3740.94      61.5485
       6017.0030  1.24446e-13  2.05064e-15      3737.78      61.5914
       6018.1034  1.24173e-13  2.05008e-15      3734.29      61.6528
       6019.2039  1.21446e-13  2.02722e-15      3656.67      61.0383
       6020.3043  1.21552e-13  2.02711e-15      3664.61      61.1142
       6021.4048  1.22649e-13  2.03294e-15      3702.54      61.3705
       6022.5052  1.22297e-13  2.02871e-15      3697.15      61.3296
       6023.6057  1.20603e-13  2.01423e-15      3651.08      60.9779
       6024.7061  1.19247e-13  2.00068e-15      3615.01      60.6510
       6025.8065  1.17770e-13  1.98820e-15      3574.74      60.3489
       6026.9070  1.17518e-13  1.98542e-15      3571.34      60.3363
       6028.0074  1.19034e-13  1.99474e-15      3621.64      60.6904
       6029.1079  1.18249e-13  1.98712e-15      3601.93      60.5288
       6030.2083  1.20598e-13  2.00648e-15      3677.78      61.1897
       6031.3088  1.22933e-13  2.02470e-15      3753.35      61.8172
       6032.4092  1.21873e-13  2.01408e-15      3725.29      61.5647
       6033.5097  1.20361e-13  1.99860e-15      3683.48      61.1642
       6034.6101  1.20695e-13  2.00047e-15      3698.68      61.3042
       6035.7106  1.21363e-13  2.00732e-15      3724.01      61.5945
       6036.8110  1.20033e-13  1.99384e-15      3687.77      61.2570
       6037.9115  1.18931e-13  1.98609e-15      3657.75      61.0828
       6039.0119  1.20939e-13  2.00095e-15      3723.45      61.6051
       6040.1124  1.21094e-13  2.00150e-15      3731.95      61.6833
       6041.2128  1.20832e-13  1.99674e-15      3727.62      61.5983
       6042.3132  1.18474e-13  1.97572e-15      3659.17      61.0215
       6043.4137  1.18188e-13  1.97324e-15      3654.33      61.0119
       6044.5141  1.17572e-13  1.96656e-15      3639.17      60.8706
       6045.6146  1.16713e-13  1.95993e-15      3616.09      60.7241
       6046.7150  1.17402e-13  1.96536e-15      3640.95      60.9512
       6047.8155  1.17808e-13  1.96526e-15      3657.11      61.0075
       6048.9159  1.18700e-13  1.97230e-15      3688.39      61.2858
       6050.0164  1.20339e-13  1.98456e-15      3742.98      61.7272
       6051.1168  1.19965e-13  1.97971e-15      3735.00      61.6362
       6052.2173  1.18932e-13  1.97323e-15      3706.44      61.4942
       6053.3177  1.21919e-13  1.99385e-15      3803.84      62.2075
       6054.4182  1.24620e-13  2.01487e-15      3892.57      62.9353
       6055.5186  1.24451e-13  2.00882e-15      3892.01      62.8229
       6056.6191  1.26720e-13  2.02535e-15      3968.15      63.4221
       6057.7195  1.29892e-13  2.04931e-15      4073.74      64.2713
       6058.8200  1.29390e-13  2.04414e-15      4065.17      64.2225
       6059.9204  1.30231e-13  2.04800e-15      4099.59      64.4699
       6061.0208  1.30101e-13  2.05123e-15      4104.03      64.7058
       6062.1213  1.30396e-13  2.04895e-15      4121.67      64.7650
       6063.2217  1.31892e-13  2.05844e-15      4177.25      65.1944
       6064.3222  1.33960e-13  2.07192e-15      4251.18      65.7517
       6065.4226  1.34815e-13  2.07474e-15      4286.04      65.9604
       6066.5231  1.34117e-13  2.06673e-15      4271.46      65.8226
       6067.6235  1.35521e-13  2.07776e-15      4323.84      66.2914
       6068.7240  1.38662e-13  2.10239e-15      4431.88      67.1963
       6069.8244  1.38770e-13  2.09825e-15      4443.21      67.1828
       6070.9249  1.38696e-13  2.09262e-15      4448.65      67.1204
       6072.0253  1.40244e-13  2.10266e-15      4506.21      67.5609
       6073.1258  1.40581e-13  2.10517e-15      4524.97      67.7604
       6074.2262  1.41090e-13  2.10724e-15      4549.31      67.9459
       6075.3267  1.41024e-13  2.10324e-15      4555.09      67.9350
       6076.4271  1.41196e-13  2.10683e-15      4567.83      68.1581
       6077.5275  1.42996e-13  2.11568e-15      4633.30      68.5515
       6078.6280  1.43543e-13  2.11702e-15      4657.99      68.6978
       6079.7284  1.44007e-13  2.12294e-15      4679.68      68.9875
       6080.8289  1.45018e-13  2.12882e-15      4717.54      69.2519
       6081.9293  1.42811e-13  2.10972e-15      4649.36      68.6842
       6083.0298  1.42900e-13  2.10961e-15      4655.00      68.7213
       6084.1302  1.43797e-13  2.11411e-15      4686.48      68.9008
       6085.2307  1.40206e-13  2.08918e-15      4572.79      68.1383
       6086.3311  1.39756e-13  2.08665e-15      4561.49      68.1060
       6087.4316  1.42180e-13  2.09939e-15      4644.02      68.5722
       6088.5320  1.40308e-13  2.08545e-15      4587.25      68.1819
       6089.6325  1.37200e-13  2.06175e-15      4490.22      67.4758
       6090.7329  1.33715e-13  2.03638e-15      4380.72      66.7150
       6091.8334  1.30526e-13  2.01244e-15      4281.54      66.0127
       6092.9338  1.28628e-13  1.99457e-15      4224.64      65.5094
       6094.0343  1.25566e-13  1.97080e-15      4129.93      64.8208
       6095.1347  1.24598e-13  1.96201e-15      4103.93      64.6233
       6096.2351  1.22047e-13  1.94169e-15      4025.63      64.0449
       6097.3356  1.23521e-13  1.95044e-15      4080.02      64.4249
       6098.4360  1.22875e-13  1.94280e-15      4064.45      64.2636
       6099.5365  1.21734e-13  1.93327e-15      4032.40      64.0390
       6100.6369  1.18216e-13  1.90597e-15      3921.44      63.2243
       6101.7374  1.14514e-13  1.87579e-15      3803.97      62.3104
       6102.8378  1.13253e-13  1.86080e-15      3767.35      61.8993
       6103.9383  1.11449e-13  1.84377e-15      3712.75      61.4224
       6105.0387  1.09595e-13  1.83030e-15      3656.57      61.0669
       6106.1392  1.08194e-13  1.81778e-15      3615.86      60.7506
       6107.2396  1.09765e-13  1.82773e-15      3674.45      61.1844
       6108.3401  1.11206e-13  1.84136e-15      3727.93      61.7274
       6109.4405  1.15689e-13  1.87306e-15      3883.67      62.8785
       6110.5410  1.21306e-13  1.91743e-15      4077.97      64.4583
       6111.6414  1.27165e-13  1.96153e-15      4280.02      66.0196
       6112.7418  1.34514e-13  2.01503e-15      4532.71      67.9004
       6113.8423  1.36579e-13  2.02929e-15      4608.59      68.4746
       6114.9427  1.42110e-13  2.06836e-15      4801.15      69.8790
       6116.0432  1.48684e-13  2.11197e-15      5029.41      71.4395
       6117.1436  1.51782e-13  2.13189e-15      5140.38      72.2006
       6118.2441  1.51958e-13  2.13119e-15      5152.98      72.2699
       6119.3445  1.54827e-13  2.14903e-15      5257.05      72.9688
       6120.4450  1.59358e-13  2.17911e-15      5417.86      74.0854
       6121.5454  1.60322e-13  2.18693e-15      5457.64      74.4467
       6122.6459  1.65160e-13  2.21349e-15      5629.54      75.4479
       6123.7463  1.65786e-13  2.21805e-15      5658.16      75.7003
       6124.8468  1.65705e-13  2.21642e-15      5663.73      75.7564
       6125.9472  1.66389e-13  2.21992e-15      5696.03      75.9948
       6127.0477  1.70718e-13  2.24809e-15      5853.60      77.0828
       6128.1481  1.76327e-13  2.28203e-15      6056.31      78.3808
       6129.2486  1.85629e-13  2.33609e-15      6385.83      80.3640
       6130.3490  1.94108e-13  2.38524e-15      6688.01      82.1839
       6131.4494  2.02361e-13  2.43205e-15      6983.31      83.9284
       6132.5499  2.11810e-13  2.48741e-15      7320.88      85.9734
       6133.6503  2.25118e-13  2.56157e-15      7793.06      88.6756
       6134.7508  2.35532e-13  2.61849e-15      8166.34      90.7878
       6135.8512  2.38225e-13  2.63241e-15      8272.20      91.4084
       6136.9517  2.38793e-13  2.63307e-15      8302.72      91.5507
       6138.0521  2.42467e-13  2.65141e-15      8440.96      92.3029
       6139.1526  2.42092e-13  2.65043e-15      8438.28      92.3824
       6140.2530  2.45828e-13  2.66791e-15      8577.86      93.0936
       6141.3535  2.54850e-13  2.71295e-15      8902.15      94.7661
       6142.4539  2.60914e-13  2.74410e-15      9123.73      95.9565
       6143.5544  2.63711e-13  2.75857e-15      9231.35      96.5654
       6144.6548  2.65218e-13  2.76751e-15      9293.99      96.9814
       6145.7553  2.66941e-13  2.77230e-15      9364.36      97.2528
       6146.8557  2.65113e-13  2.75963e-15      9310.14      96.9117
       6147.9561  2.62898e-13  2.74805e-15      9240.44      96.5899
       6149.0566  2.61390e-13  2.73825e-15      9194.71      96.3211
       6150.1570  2.61435e-13  2.73623e-15      9202.58      96.3160
       6151.2575  2.57328e-13  2.71559e-15      9062.62      95.6381
       6152.3579  2.57340e-13  2.71508e-15      9067.61      95.6682
       6153.4584  2.58027e-13  2.71628e-15      9096.36      95.7585
       6154.5588  2.53398e-13  2.69128e-15      8937.62      94.9245
       6155.6593  2.52838e-13  2.68764e-15      8922.36      94.8437
       6156.7597  2.51828e-13  2.68586e-15      8891.18      94.8284
       6157.8602  2.47006e-13  2.65687e-15      8725.29      93.8519
       6158.9606  2.46173e-13  2.64917e-15      8702.25      93.6485
       6160.0611  2.41156e-13  2.62170e-15      8531.98      92.7543
       6161.1615  2.35257e-13  2.59195e-15      8330.59      91.7825
       6162.2620  2.28031e-13  2.54892e-15      8082.73      90.3484
       6163.3624  2.21629e-13  2.51231e-15      7864.43      89.1484
       6164.4629  2.14061e-13  2.46649e-15      7603.85      87.6145
       6165.5633  2.10028e-13  2.44222e-15      7469.12      86.8514
       6166.6637  2.04103e-13  2.40637e-15      7267.16      85.6799
       6167.7642  2.00197e-13  2.38334e-15      7136.70      84.9623
       6168.8646  1.99273e-13  2.37568e-15      7112.35      84.7913
       6169.9651  1.93563e-13  2.34280e-15      6917.24      83.7229
       6171.0655  1.91971e-13  2.32973e-15      6870.90      83.3844
       6172.1660  1.87721e-13  2.30096e-15      6730.68      82.5002
       6173.2664  1.85562e-13  2.28723e-15      6665.38      82.1570
       6174.3669  1.85831e-13  2.28552e-15      6687.93      82.2542
       6175.4673  1.84950e-13  2.27823e-15      6669.16      82.1513
       6176.5678  1.82839e-13  2.26371e-15      6605.85      81.7863
       6177.6682  1.79533e-13  2.23912e-15      6499.01      81.0551
       6178.7687  1.79689e-13  2.23845e-15      6517.25      81.1880
       6179.8691  1.77827e-13  2.22446e-15      6462.22      80.8368
       6180.9696  1.77720e-13  2.22385e-15      6470.82      80.9711
       6182.0700  1.74730e-13  2.20151e-15      6372.82      80.2944
       6183.1704  1.73026e-13  2.18741e-15      6320.84      79.9086
       6184.2709  1.72557e-13  2.18593e-15      6313.55      79.9790
       6185.3713  1.70298e-13  2.17160e-15      6239.91      79.5698
       6186.4718  1.67244e-13  2.14839e-15      6136.24      78.8252
       6187.5722  1.65539e-13  2.13597e-15      6081.83      78.4743
       6188.6727  1.64299e-13  2.12594e-15      6043.81      78.2035
       6189.7731  1.62972e-13  2.11776e-15      6002.10      77.9948
       6190.8736  1.62370e-13  2.11438e-15      5987.01      77.9627
       6191.9740  1.59339e-13  2.09215e-15      5882.18      77.2340
       6193.0745  1.57366e-13  2.07509e-15      5815.95      76.6911
       6194.1749  1.54907e-13  2.05681e-15      5731.61      76.1025
       6195.2754  1.50034e-13  2.02429e-15      5558.72      74.9996
       6196.3758  1.48516e-13  2.01493e-15      5509.57      74.7490
       6197.4763  1.48278e-13  2.01360e-15      5507.24      74.7878
       6198.5767  1.50369e-13  2.02615e-15      5591.39      75.3412
       6199.6772  1.47181e-13  2.00087e-15      5479.21      74.4879
       6200.7776  1.42645e-13  1.97134e-15      5316.60      73.4749
       6201.8780  1.39626e-13  1.94958e-15      5210.92      72.7595
       6202.9785  1.35878e-13  1.92583e-15      5077.75      71.9680
       6204.0789  1.37280e-13  1.92980e-15      5136.97      72.2126
       6205.1794  1.35464e-13  1.91949e-15      5075.87      71.9238
       6206.2798  1.36105e-13  1.92129e-15      5106.80      72.0891
       6207.3803  1.38116e-13  1.92951e-15      5189.31      72.4958
       6208.4807  1.38147e-13  1.93324e-15      5197.52      72.7343
       6209.5812  1.34797e-13  1.91216e-15      5078.36      72.0388
       6210.6816  1.34387e-13  1.90417e-15      5069.77      71.8352
       6211.7821  1.34395e-13  1.90054e-15      5076.95      71.7955
       6212.8825  1.32212e-13  1.88861e-15      5001.23      71.4414
       6213.9830  1.32686e-13  1.88973e-15      5025.95      71.5806
       6215.0834  1.35837e-13  1.90949e-15      5152.31      72.4270
       6216.1839  1.35443e-13  1.90410e-15      5144.30      72.3200
       6217.2843  1.40047e-13  1.93346e-15      5324.82      73.5137
       6218.3847  1.45193e-13  1.97021e-15      5524.12      74.9600
       6219.4852  1.49571e-13  1.99616e-15      5694.40      75.9972
       6220.5856  1.57086e-13  2.04321e-15      5984.46      77.8394
       6221.6861  1.65545e-13  2.09731e-15      6310.85      79.9528
       6222.7865  1.74112e-13  2.14984e-15      6641.73      82.0086
       6223.8870  1.82435e-13  2.19944e-15      6963.67      83.9541
       6224.9874  1.89776e-13  2.24447e-15      7247.45      85.7153
       6226.0879  1.93675e-13  2.26358e-15      7401.64      86.5070
       6227.1883  2.01369e-13  2.30549e-15      7701.08      88.1703
       6228.2888  2.09116e-13  2.35114e-15      8002.85      89.9780
       6229.3892  2.23270e-13  2.42759e-15      8550.31      92.9666
       6230.4897  2.36182e-13  2.49575e-15      9050.91      95.6414
       6231.5901  2.47849e-13  2.55616e-15      9504.43      98.0225
       6232.6906  2.63521e-13  2.63342e-15      10112.3      101.054
       6233.7910  2.69597e-13  2.66235e-15      10353.0      102.239
       6234.8915  2.69701e-13  2.66294e-15      10364.5      102.336
       6235.9919  2.73253e-13  2.67763e-15      10508.7      102.976
       6237.0923  2.70535e-13  2.66541e-15      10411.8      102.581
       6238.1928  2.70487e-13  2.66441e-15      10417.6      102.618
       6239.2932  2.74487e-13  2.68288e-15      10579.4      103.405
       6240.3937  2.79480e-13  2.70705e-15      10779.7      104.412
       6241.4941  2.81901e-13  2.71740e-15      10881.0      104.888
       6242.5946  2.85402e-13  2.73076e-15      11024.2      105.481
       6243.6950  2.84546e-13  2.72342e-15      10999.2      105.274
       6244.7955  2.84009e-13  2.71998e-15      10986.5      105.218
       6245.8959  2.84958e-13  2.72471e-15      11031.6      105.482
       6246.9964  2.85860e-13  2.72779e-15      11076.3      105.695
       6248.0968  2.82198e-13  2.70818e-15      10944.3      105.029
       6249.1973  2.80503e-13  2.69997e-15      10887.6      104.798
       6250.2977  2.75971e-13  2.67699e-15      10720.7      103.994
       6251.3982  2.72618e-13  2.65983e-15      10598.7      103.407
       6252.4986  2.66443e-13  2.62771e-15      10366.6      102.237
       6253.5990  2.58152e-13  2.58627e-15      10051.8      100.703
       6254.6995  2.50073e-13  2.54423e-15      9744.72      99.1426
       6255.7999  2.44479e-13  2.51684e-15      9534.10      98.1509
       6256.9004  2.38240e-13  2.48955e-15      9297.47      97.1561
       6258.0008  2.29930e-13  2.44800e-15      8979.60      95.6034
       6259.1013  2.26491e-13  2.42438e-15      8851.65      94.7486
       6260.2017  2.19827e-13  2.38464e-15      8597.27      93.2614
       6261.3022  2.11983e-13  2.34206e-15      8296.25      91.6597
       6262.4026  2.04238e-13  2.29744e-15      7998.69      89.9759
       6263.5031  1.93802e-13  2.23698e-15      7595.18      87.6681
       6264.6035  1.86918e-13  2.19864e-15      7329.14      86.2096
       6265.7040  1.81296e-13  2.16731e-15      7109.26      84.9879
       6266.8044  1.76636e-13  2.13670e-15      6927.04      83.7937
       6267.9049  1.72516e-13  2.11127e-15      6765.99      82.8027
       6269.0053  1.69142e-13  2.08896e-15      6633.95      81.9315
       6270.1058  1.69441e-13  2.09033e-15      6645.17      81.9789
       6271.2062  1.71513e-13  2.10528e-15      6725.82      82.5579
       6272.3066  1.74650e-13  2.12523e-15      6847.07      83.3185
       6273.4071  1.76300e-13  2.13612e-15      6909.96      83.7241
       6274.5075  1.77892e-13  2.14584e-15      6970.97      84.0878
       6275.6080  1.76816e-13  2.13957e-15      6927.43      83.8256
       6276.7084  1.76050e-13  2.13512e-15      6896.02      83.6347
       6277.8089  1.74588e-13  2.12643e-15      6837.40      83.2778
       6278.9093  1.74916e-13  2.12744e-15      6848.88      83.3006
       6280.0098  1.78465e-13  2.14648e-15      6986.44      84.0292
       6281.1102  1.80338e-13  2.15800e-15      7058.38      84.4633
       6282.2107  1.79907e-13  2.15647e-15      7040.09      84.3865
       6283.3111  1.79414e-13  2.15616e-15      7019.47      84.3585
       6284.4116  1.84134e-13  2.18445e-15      7202.88      85.4504
       6285.5120  1.99599e-13  2.27243e-15      7806.43      88.8760
       6286.6125  2.14085e-13  2.35353e-15      8371.56      92.0322
       6287.7129  2.24467e-13  2.41037e-15      8777.62      94.2557
       6288.8133  2.30451e-13  2.44139e-15      9015.64      95.5114
       6289.9138  2.29637e-13  2.43698e-15      8987.79      95.3815
       6291.0142  2.30257e-13  2.44100e-15      9016.09      95.5813
       6292.1147  2.35124e-13  2.46700e-15      9210.79      96.6426
       6293.2151  2.41743e-13  2.49635e-15      9478.62      97.8804
       6294.3156  2.46655e-13  2.52218e-15      9680.06      98.9839
       6295.4160  2.52217e-13  2.55435e-15      9908.20      100.346
       6296.5165  2.57697e-13  2.58316e-15      10134.5      101.589
       6297.6169  2.62726e-13  2.61600e-15      10345.8      103.015
       6298.7174  2.67699e-13  2.66285e-15      10556.6      105.009
       6299.8178  2.70802e-13  2.70667e-15      10694.3      106.890
       6300.9183  2.74141e-13  2.71773e-15      10844.6      107.509
       6302.0187  2.76528e-13  2.69185e-15      10958.3      106.673
       6303.1192  2.77273e-13  2.66793e-15      11007.8      105.918
       6304.2196  2.75477e-13  2.64532e-15      10957.5      105.222
       6305.3201  2.71927e-13  2.62471e-15      10837.1      104.602
       6306.4205  2.68268e-13  2.60896e-15      10711.7      104.174
       6307.5209  2.69061e-13  2.60810e-15      10764.7      104.346
       6308.6214  2.69700e-13  2.60714e-15      10812.9      104.526
       6309.7218  2.66627e-13  2.58961e-15      10713.4      104.053
       6310.8223  2.63870e-13  2.57212e-15      10626.6      103.585
       6311.9227  2.59712e-13  2.54924e-15      10482.9      102.896
       6313.0232  2.52797e-13  2.51291e-15      10227.2      101.663
       6314.1236  2.43485e-13  2.46281e-15      9873.82      99.8720
       6315.2241  2.33628e-13  2.41132e-15      9496.60      98.0166
       6316.3245  2.22203e-13  2.35035e-15      9050.08      95.7272
       6317.4250  2.11818e-13  2.29188e-15      8644.50      93.5339
       6318.5254  2.04433e-13  2.25042e-15      8359.28      92.0195
       6319.6259  1.99590e-13  2.22268e-15      8176.72      91.0583
       6320.7263  1.98022e-13  2.21113e-15      8127.03      90.7468
       6321.8268  1.94865e-13  2.19295e-15      8010.86      90.1515
       6322.9272  1.90249e-13  2.16525e-15      7834.02      89.1604
       6324.0276  1.86425e-13  2.14073e-15      7687.56      88.2766
       6325.1281  1.83967e-13  2.12533e-15      7597.00      87.7664
       6326.2285  1.81964e-13  2.11044e-15      7525.08      87.2768
       6327.3290  1.78806e-13  2.09094e-15      7404.49      86.5873
       6328.4294  1.76836e-13  2.08138e-15      7333.31      86.3140
       6329.5299  1.74041e-13  2.06566e-15      7227.69      85.7842
       6330.6303  1.71639e-13  2.04771e-15      7137.65      85.1544
       6331.7308  1.73754e-13  2.05504e-15      7234.56      85.5654
       6332.8312  1.76697e-13  2.06966e-15      7365.37      86.2709
       6333.9317  1.76935e-13  2.07081e-15      7383.19      86.4113
       6335.0321  1.75393e-13  2.06116e-15      7326.71      86.1010
       6336.1326  1.73205e-13  2.04690e-15      7242.78      85.5936
       6337.2330  1.74160e-13  2.05123e-15      7289.73      85.8575
       6338.3335  1.77795e-13  2.07129e-15      7450.08      86.7926
       6339.4339  1.80015e-13  2.08527e-15      7551.14      87.4714
       6340.5344  1.82837e-13  2.09996e-15      7677.28      88.1767
       6341.6348  1.83427e-13  2.10155e-15      7709.79      88.3321
       6342.7352  1.86102e-13  2.11851e-15      7829.67      89.1295
       6343.8357  1.91058e-13  2.14328e-15      8045.01      90.2483
       6344.9361  1.91543e-13  2.14285e-15      8072.28      90.3070
       6346.0366  1.91783e-13  2.14481e-15      8089.28      90.4668
       6347.1370  1.90181e-13  2.13590e-15      8028.33      90.1654
       6348.2375  1.89854e-13  2.13310e-15      8020.65      90.1159
       6349.3379  1.93027e-13  2.14954e-15      8160.34      90.8733
       6350.4384  1.93454e-13  2.15194e-15      8183.98      91.0367
       6351.5388  1.93774e-13  2.15298e-15      8202.49      91.1361
       6352.6393  1.96087e-13  2.16328e-15      8305.49      91.6282
       6353.7397  1.99569e-13  2.18152e-15      8458.09      92.4567
       6354.8402  2.05417e-13  2.21254e-15      8711.28      93.8287
       6355.9406  2.09896e-13  2.23809e-15      8906.63      94.9699
       6357.0411  2.14031e-13  2.25840e-15      9087.63      95.8901
       6358.1415  2.17206e-13  2.27362e-15      9228.03      96.5954
       6359.2419  2.19850e-13  2.28897e-15      9346.06      97.3066
       6360.3424  2.23546e-13  2.30608e-15      9508.96      98.0936
       6361.4428  2.24556e-13  2.31892e-15      9556.59      98.6879
       6362.5433  2.26546e-13  2.33930e-15      9646.90      99.6134
       6363.6437  2.29119e-13  2.36110e-15      9762.95      100.609
       6364.7442  2.32017e-13  2.36897e-15      9893.81      101.019
       6365.8446  2.33717e-13  2.36171e-15      9974.66      100.794
       6366.9451  2.35162e-13  2.36077e-15      10044.7      100.838
       6368.0455  2.37452e-13  2.36960e-15      10151.1      101.300
       6369.1460  2.38386e-13  2.37348e-15      10199.5      101.551
       6370.2464  2.37269e-13  2.36787e-15      10160.3      101.396
       6371.3469  2.36539e-13  2.36327e-15      10137.5      101.284
       6372.4473  2.36916e-13  2.36450e-15      10162.6      101.426
       6373.5478  2.37196e-13  2.36243e-15      10183.9      101.430
       6374.6482  2.34440e-13  2.34765e-15      10075.0      100.889
       6375.7487  2.29083e-13  2.31994e-15      9854.06      99.7924
       6376.8491  2.28246e-13  2.31418e-15      9827.34      99.6394
       6377.9495  2.24554e-13  2.29706e-15      9677.56      98.9960
       6379.0500  2.19312e-13  2.27152e-15      9460.61      97.9882
       6380.1504  2.18402e-13  2.26235e-15      9430.31      97.6850
       6381.2509  2.20790e-13  2.26970e-15      9542.45      98.0954
       6382.3513  2.18385e-13  2.25670e-15      9447.43      97.6261
       6383.4518  2.13698e-13  2.23270e-15      9253.45      96.6792
       6384.5522  2.11944e-13  2.22244e-15      9185.89      96.3231
       6385.6527  2.09022e-13  2.20802e-15      9066.64      95.7763
       6386.7531  2.03009e-13  2.17812e-15      8812.35      94.5494
       6387.8536  1.97869e-13  2.15099e-15      8594.91      93.4335
       6388.9540  1.95074e-13  2.13537e-15      8478.29      92.8075
       6390.0545  1.94409e-13  2.12842e-15      8454.18      92.5578
       6391.1549  1.90586e-13  2.10492e-15      8292.65      91.5876
       6392.2554  1.88775e-13  2.09574e-15      8218.49      91.2399
       6393.3558  1.88185e-13  2.09269e-15      8197.45      91.1588
       6394.4562  1.85002e-13  2.07419e-15      8063.38      90.4042
       6395.5567  1.82114e-13  2.05459e-15      7942.71      89.6087
       6396.6571  1.80064e-13  2.04421e-15      7859.03      89.2213
       6397.7576  1.79107e-13  2.03809e-15      7823.11      89.0205
       6398.8580  1.79639e-13  2.03730e-15      7852.47      89.0557
       6399.9585  1.78036e-13  2.03117e-15      7788.46      88.8570
       6401.0589  1.81238e-13  2.04749e-15      7934.78      89.6408
       6402.1594  1.81162e-13  2.04770e-15      7937.85      89.7224
       6403.2598  1.80514e-13  2.04453e-15      7915.79      89.6556
       6404.3603  1.83932e-13  2.06156e-15      8072.21      90.4752
       6405.4607  1.90821e-13  2.09809e-15      8381.26      92.1524
       6406.5612  1.94071e-13  2.11564e-15      8530.90      92.9985
       6407.6616  1.95197e-13  2.11589e-15      8587.31      93.0841
       6408.7621  2.00674e-13  2.14830e-15      8835.35      94.5860
       6409.8625  2.05740e-13  2.17415e-15      9066.32      95.8082
       6410.9630  2.09598e-13  2.19022e-15      9245.43      96.6109
       6412.0634  2.14629e-13  2.21704e-15      9477.25      97.8968
       6413.1638  2.18211e-13  2.23318e-15      9645.54      98.7126
       6414.2643  2.22696e-13  2.25401e-15      9854.09      99.7378
       6415.3647  2.27308e-13  2.27860e-15      10068.7      100.932
       6416.4652  2.35976e-13  2.32018e-15      10463.6      102.881
       6417.5656  2.42664e-13  2.35066e-15      10771.5      104.342
       6418.6661  2.43467e-13  2.35447e-15      10817.0      104.607
       6419.7665  2.41872e-13  2.34677e-15      10754.8      104.349
       6420.8670  2.38441e-13  2.32839e-15      10611.1      103.618
       6421.9674  2.36191e-13  2.31480e-15      10519.5      103.097
       6423.0679  2.36357e-13  2.31462e-15      10536.0      103.179
       6424.1683  2.33691e-13  2.30031e-15      10426.3      102.630
       6425.2688  2.35544e-13  2.30752e-15      10517.9      103.039
       6426.3692  2.35079e-13  2.30708e-15      10506.1      103.107
       6427.4697  2.36009e-13  2.31033e-15      10556.6      103.340
       6428.5701  2.33085e-13  2.29427e-15      10434.8      102.711
       6429.6705  2.33799e-13  2.29558e-15      10477.0      102.870
       6430.7710  2.32731e-13  2.28883e-15      10439.3      102.667
       6431.8714  2.31927e-13  2.28471e-15      10413.4      102.582
       6432.9719  2.29651e-13  2.27489e-15      10320.7      102.235
       6434.0723  2.29998e-13  2.27733e-15      10345.0      102.431
       6435.1728  2.31675e-13  2.28208e-15      10428.7      102.726
       6436.2732  2.44030e-13  2.33797e-15      10993.6      105.326
       6437.3737  2.59668e-13  2.41054e-15      11707.4      108.682
       6438.4741  2.80240e-13  2.50342e-15      12645.1      112.960
       6439.5746  2.95106e-13  2.56903e-15      13326.7      116.014
       6440.6750  3.11818e-13  2.63936e-15      14092.7      119.287
       6441.7755  3.20977e-13  2.67683e-15      14518.4      121.078
       6442.8759  3.25884e-13  2.69520e-15      14752.2      122.007
       6443.9764  3.30174e-13  2.70932e-15      14957.6      122.738
       6445.0768  3.30724e-13  2.70991e-15      14993.1      122.852
       6446.1773  3.27037e-13  2.69681e-15      14835.1      122.333
       6447.2777  3.30121e-13  2.70860e-15      14984.1      122.942
       6448.3781  3.27686e-13  2.69877e-15      14882.7      122.571
       6449.4786  3.29561e-13  2.70550e-15      14975.7      122.941
       6450.5790  3.34987e-13  2.72816e-15      15229.8      124.033
       6451.6795  3.35799e-13  2.72970e-15      15274.1      124.163
       6452.7799  3.30273e-13  2.70347e-15      15028.4      123.015
       6453.8804  3.30535e-13  2.70713e-15      15045.4      123.224
       6454.9808  3.27279e-13  2.69392e-15      14902.3      122.665
       6456.0813  3.25976e-13  2.68690e-15      14847.4      122.382
       6457.1817  3.29480e-13  2.70161e-15      15010.6      123.081
       6458.2822  3.27648e-13  2.69567e-15      14930.5      122.838
       6459.3826  3.24662e-13  2.68194e-15      14797.8      122.240
       6460.4831  3.26217e-13  2.68715e-15      14872.0      122.506
       6461.5835  3.17144e-13  2.65217e-15      14461.7      120.938
       6462.6840  3.18366e-13  2.65507e-15      14520.6      121.097
       6463.7844  3.18453e-13  2.65792e-15      14527.7      121.253
       6464.8848  3.23034e-13  2.67738e-15      14739.9      122.168
       6465.9853  3.20353e-13  2.66583e-15      14620.8      121.667
       6467.0857  3.19533e-13  2.65908e-15      14586.7      121.387
       6468.1862  3.17345e-13  2.65197e-15      14490.2      121.091
       6469.2866  3.06251e-13  2.60519e-15      13987.5      118.988
       6470.3871  3.04410e-13  2.59832e-15      13907.3      118.706
       6471.4875  2.94001e-13  2.55187e-15      13435.4      116.617
       6472.5880  2.77711e-13  2.47707e-15      12695.6      113.239
       6473.6884  2.64315e-13  2.41698e-15      12087.8      110.535
       6474.7889  2.53684e-13  2.37093e-15      11606.3      108.472
       6475.8893  2.44076e-13  2.32545e-15      11171.2      106.434
       6476.9898  2.45501e-13  2.33195e-15      11241.2      106.778
       6478.0902  2.40827e-13  2.30754e-15      11032.0      105.706
       6479.1907  2.37950e-13  2.29537e-15      10905.3      105.197
       6480.2911  2.38392e-13  2.29417e-15      10930.9      105.193
       6481.3916  2.33188e-13  2.26819e-15      10697.5      104.053
       6482.4920  2.32098e-13  2.26620e-15      10652.7      104.012
       6483.5924  2.29059e-13  2.24614e-15      10519.0      103.149
       6484.6929  2.27704e-13  2.23855e-15      10463.5      102.866
       6485.7933  2.29043e-13  2.24819e-15      10531.9      103.376
       6486.8938  2.27136e-13  2.23695e-15      10451.3      102.929
       6487.9942  2.25818e-13  2.23233e-15      10398.8      102.798
       6489.0947  2.26978e-13  2.23494e-15      10461.1      103.005
       6490.1951  2.19287e-13  2.19484e-15      10115.8      101.249
       6491.2956  2.15564e-13  2.17831e-15      9954.03      100.587
       6492.3960  2.07824e-13  2.13752e-15      9607.38      98.8144
       6493.4965  2.13009e-13  2.16237e-15      9858.55      100.079
       6494.5969  2.11165e-13  2.15061e-15      9784.58      99.6511
       6495.6974  2.12371e-13  2.15636e-15      9851.91      100.034
       6496.7978  2.12361e-13  2.15663e-15      9862.86      100.162
       6497.8983  2.16886e-13  2.18167e-15      10084.7      101.443
       6498.9987  2.19365e-13  2.19435e-15      10211.8      102.151
       6500.0991  2.22793e-13  2.20780e-15      10383.5      102.896
       6501.1996  2.22200e-13  2.20036e-15      10367.9      102.670
       6502.3000  2.22465e-13  2.19852e-15      10392.5      102.704
       6503.4005  2.12318e-13  2.14894e-15      9930.11      100.506
       6504.5009  2.01201e-13  2.09308e-15      9421.24      98.0081
       6505.6014  1.92911e-13  2.04923e-15      9043.68      96.0680
       6506.7018  1.88615e-13  2.02452e-15      8852.04      95.0139
       6507.8023  1.94645e-13  2.05638e-15      9144.36      96.6079
       6508.9027  2.09774e-13  2.13099e-15      9865.03      100.214
       6510.0032  2.22484e-13  2.19428e-15      10473.1      103.292
       6511.1036  2.40712e-13  2.27864e-15      11341.0      107.357
       6512.2041  2.59216e-13  2.36447e-15      12222.7      111.491
       6513.3045  2.75801e-13  2.43607e-15      13014.6      114.954
       6514.4050  2.93016e-13  2.50837e-15      13836.1      118.444
       6515.5054  3.08862e-13  2.57504e-15      14592.3      121.659
       6516.6059  3.33494e-13  2.67199e-15      15764.0      126.303
       6517.7063  3.48645e-13  2.73196e-15      16488.4      129.202
       6518.8067  3.67220e-13  2.80274e-15      17375.7      132.617
       6519.9072  3.88175e-13  2.88023e-15      18376.5      136.352
       6521.0076  4.03295e-13  2.93582e-15      19101.8      139.054
       6522.1081  4.15238e-13  2.97861e-15      19677.5      141.151
       6523.2085  4.31179e-13  3.03434e-15      20443.2      143.865
       6524.3090  4.39474e-13  3.06134e-15      20847.0      145.218
       6525.4094  4.41932e-13  3.06884e-15      20974.2      145.647
       6526.5099  4.44032e-13  3.07585e-15      21084.5      146.054
       6527.6103  4.44238e-13  3.07694e-15      21104.9      146.180
       6528.7108  4.39841e-13  3.06067e-15      20906.5      145.480
       6529.8112  4.37815e-13  3.05199e-15      20820.8      145.140
       6530.9117  4.29915e-13  3.02667e-15      20455.4      144.009
       6532.0121  4.23010e-13  3.00350e-15      20140.7      143.005
       6533.1126  4.28389e-13  3.02169e-15      20410.8      143.970
       6534.2130  4.53122e-13  3.10537e-15      21604.1      148.059
       6535.3134  5.00004e-13  3.25757e-15      23855.7      155.422
       6536.4139  5.67239e-13  3.46645e-15      27077.5      165.473
       6537.5143  6.67660e-13  3.75623e-15      31885.2      179.385
       6538.6148  7.97809e-13  4.10183e-15      38112.2      195.949
       6539.7152  9.78140e-13  4.53774e-15      46740.7      216.837
       6540.8157  1.20158e-12  5.02548e-15      57435.0      240.216
       6541.9161  1.48312e-12  5.57991e-15      70913.5      266.797
       6543.0166  1.84871e-12  6.22571e-15      88420.4      297.763
       6544.1170  2.23214e-12  6.84021e-15      106791.      327.251
       6545.2175  2.65073e-12  7.45176e-15      126855.      356.616
       6546.3179  3.02063e-12  7.95387e-15      144600.      380.759
       6547.4184  3.32147e-12  8.33955e-15      159049.      399.341
       6548.5188  3.53101e-12  8.59814e-15      169133.      411.846
       6549.6193  3.66433e-12  8.75737e-15      175572.      419.598
       6550.7197  3.75008e-12  8.85791e-15      179734.      424.542
       6551.8202  3.79524e-12  8.90951e-15      181956.      427.151
       6552.9206  3.81145e-12  8.92802e-15      182791.      428.174
       6554.0210  3.82963e-12  8.94861e-15      183721.      429.298
       6555.1215  3.89793e-12  9.02687e-15      187024.      433.112
       6556.2219  3.98546e-12  9.12625e-15      191250.      437.941
       6557.3224  4.04976e-12  9.19848e-15      194363.      441.468
       6558.4228  4.02967e-12  9.17510e-15      193425.      440.407
       6559.5233  3.93192e-12  9.06206e-15      188792.      435.116
       6560.6237  3.80170e-12  8.91074e-15      182610.      428.015
       6561.7242  3.64011e-12  8.71869e-15      174940.      419.011
       6562.8246  3.53137e-12  8.58697e-15      169804.      412.899
       6563.9251  3.45340e-12  8.48838e-15      166143.      408.375
       6565.0255  3.39642e-12  8.41475e-15      163488.      405.047
       6566.1260  3.38027e-12  8.39190e-15      162797.      404.162
       6567.2264  3.38947e-12  8.40142e-15      163327.      404.836
       6568.3269  3.44978e-12  8.47329e-15      166321.      408.516
       6569.4273  3.54795e-12  8.59003e-15      171145.      414.364
       6570.5277  3.67155e-12  8.73483e-15      177222.      421.621
       6571.6282  3.80742e-12  8.89043e-15      183939.      429.502
       6572.7286  3.95512e-12  9.05675e-15      191243.      437.925
       6573.8291  4.08376e-12  9.19827e-15      197648.      445.182
       6574.9295  4.15765e-12  9.27644e-15      201418.      449.398
       6576.0300  4.15419e-12  9.26854e-15      201444.      449.449
       6577.1304  4.04561e-12  9.14309e-15      196368.      443.793
       6578.2309  3.88108e-12  8.95048e-15      188564.      434.863
       6579.3313  3.66800e-12  8.69666e-15      178383.      422.938
       6580.4318  3.42853e-12  8.40426e-15      166898.      409.113
       6581.5322  3.16431e-12  8.07093e-15      154179.      393.252
       6582.6327  2.92149e-12  7.75323e-15      142471.      378.099
       6583.7331  2.68436e-12  7.42915e-15      131005.      362.565
       6584.8336  2.44887e-12  7.09330e-15      119602.      346.433
       6585.9340  2.22235e-12  6.75527e-15      108619.      330.170
       6587.0345  2.02378e-12  6.44488e-15      98988.0      315.234
       6588.1349  1.84111e-12  6.14503e-15      90120.2      300.793
       6589.2353  1.67288e-12  5.85722e-15      81946.5      286.919
       6590.3358  1.52821e-12  5.59751e-15      74916.1      274.401
       6591.4362  1.39174e-12  5.34047e-15      68276.8      261.996
       6592.5367  1.26861e-12  5.09769e-15      62282.6      250.273
       6593.6371  1.16004e-12  4.87411e-15      56988.3      239.447
       6594.7376  1.06531e-12  4.67043e-15      52356.4      229.537
       6595.8380  9.87699e-13  4.49665e-15      48561.5      221.084
       6596.9385  9.11003e-13  4.31903e-15      44806.4      212.425
       6598.0389  8.39938e-13  4.14700e-15      41324.3      204.029
       6599.1394  7.83077e-13  4.00493e-15      38539.0      197.102
       6600.2398  7.34270e-13  3.87884e-15      36148.5      190.957
       6601.3403  6.87894e-13  3.75316e-15      33876.5      184.831
       6602.4407  6.42322e-13  3.62672e-15      31643.0      178.665
       6603.5412  6.01611e-13  3.51209e-15      29647.5      173.077
       6604.6416  5.64620e-13  3.40226e-15      27835.0      167.727
       6605.7420  5.28472e-13  3.29022e-15      26064.5      162.275
       6606.8425  4.98096e-13  3.19359e-15      24580.1      157.597
       6607.9429  4.72460e-13  3.11012e-15      23328.0      153.565
       6609.0434  4.47093e-13  3.02493e-15      22088.1      149.443
       6610.1438  4.22548e-13  2.93979e-15      20887.5      145.320
       6611.2443  3.99347e-13  2.85792e-15      19753.4      141.365
       6612.3447  3.77059e-13  2.77658e-15      18661.7      137.420
       6613.4452  3.52830e-13  2.68527e-15      17472.1      132.974
       6614.5456  3.36677e-13  2.62358e-15      16680.9      129.987
       6615.6461  3.34377e-13  2.61455e-15      16573.3      129.590
       6616.7465  3.28211e-13  2.59031e-15      16273.7      128.435
       6617.8470  3.13769e-13  2.53296e-15      15563.3      125.638
       6618.9474  3.00801e-13  2.47902e-15      14925.5      123.007
       6620.0479  2.91160e-13  2.43794e-15      14452.4      121.013
       6621.1483  2.81371e-13  2.39572e-15      13971.6      118.961
       6622.2488  2.70440e-13  2.34933e-15      13433.8      116.700
       6623.3492  2.60897e-13  2.30863e-15      12964.5      114.720
       6624.4496  2.52914e-13  2.27227e-15      12571.1      112.943
       6625.5501  2.46414e-13  2.24292e-15      12251.1      111.512
       6626.6505  2.41072e-13  2.21857e-15      11988.2      110.327
       6627.7510  2.35079e-13  2.19100e-15      11692.8      108.980
       6628.8514  2.29718e-13  2.16613e-15      11428.6      107.767
       6629.9519  2.28522e-13  2.16025e-15      11370.9      107.491
       6631.0523  2.26242e-13  2.14862e-15      11259.0      106.927
       6632.1528  2.20258e-13  2.12162e-15      10962.6      105.596
       6633.2532  2.14755e-13  2.09570e-15      10689.6      104.314
       6634.3537  2.10268e-13  2.07350e-15      10465.8      103.206
       6635.4541  2.11145e-13  2.07650e-15      10509.3      103.353
       6636.5546  2.13576e-13  2.08763e-15      10630.3      103.908
       6637.6550  2.11461e-13  2.07692e-15      10525.4      103.378
       6638.7555  2.10427e-13  2.07058e-15      10475.7      103.080
       6639.8559  2.09136e-13  2.06510e-15      10413.4      102.827
       6640.9563  2.06720e-13  2.05251e-15      10295.1      102.219
       6642.0568  2.04656e-13  2.03974e-15      10194.2      101.602
       6643.1572  1.98411e-13  2.01132e-15      9885.03      100.206
       6644.2577  1.96463e-13  2.00148e-15      9789.84      99.7344
       6645.3581  1.95630e-13  1.99532e-15      9750.17      99.4467
       6646.4586  1.93318e-13  1.98323e-15      9636.75      98.8625
       6647.5590  1.87982e-13  1.95778e-15      9373.56      97.6231
       6648.6595  1.86731e-13  1.94948e-15      9314.07      97.2390
       6649.7599  1.84655e-13  1.93693e-15      9213.53      96.6447
       6650.8604  1.81766e-13  1.92143e-15      9072.46      95.9039
       6651.9608  1.81010e-13  1.91699e-15      9038.07      95.7177
       6653.0613  1.77701e-13  1.90143e-15      8876.66      94.9818
       6654.1617  1.76173e-13  1.89297e-15      8804.28      94.6015
       6655.2622  1.75853e-13  1.89026e-15      8792.33      94.5093
       6656.3626  1.75811e-13  1.88976e-15      8794.50      94.5307
       6657.4631  1.71714e-13  1.86637e-15      8593.27      93.4010
       6658.5635  1.69915e-13  1.85524e-15      8505.94      92.8736
       6659.6639  1.66987e-13  1.84030e-15      8361.56      92.1490
       6660.7644  1.64685e-13  1.82860e-15      8248.42      91.5872
       6661.8648  1.65570e-13  1.83210e-15      8294.86      91.7862
       6662.9653  1.66934e-13  1.83660e-15      8365.38      92.0353
       6664.0657  1.67284e-13  1.83797e-15      8385.08      92.1281
       6665.1662  1.64933e-13  1.82679e-15      8269.38      91.5912
       6666.2666  1.66495e-13  1.83586e-15      8349.86      92.0699
       6667.3671  1.64983e-13  1.82680e-15      8276.19      91.6394
       6668.4675  1.65184e-13  1.82828e-15      8288.42      91.7374
       6669.5680  1.64246e-13  1.82269e-15      8243.49      91.4804
       6670.6684  1.64250e-13  1.82127e-15      8245.83      91.4329
       6671.7689  1.66982e-13  1.83337e-15      8385.14      92.0642
       6672.8693  1.64441e-13  1.82187e-15      8259.70      91.5105
       6673.9698  1.67476e-13  1.83867e-15      8414.32      92.3784
       6675.0702  1.70099e-13  1.85291e-15      8548.35      93.1180
       6676.1706  1.69185e-13  1.84514e-15      8504.60      92.7516
       6677.2711  1.69269e-13  1.84962e-15      8510.75      92.9980
       6678.3715  1.73634e-13  1.87040e-15      8731.62      94.0578
       6679.4720  1.72341e-13  1.86202e-15      8666.17      93.6317
       6680.5724  1.72371e-13  1.86177e-15      8668.17      93.6245
       6681.6729  1.74194e-13  1.87160e-15      8761.86      94.1404
       6682.7733  1.77314e-13  1.88941e-15      8921.35      95.0636
       6683.8738  1.75638e-13  1.88186e-15      8839.61      94.7114
       6684.9742  1.78657e-13  1.89606e-15      8994.16      95.4537
       6686.0747  1.77254e-13  1.88949e-15      8926.08      95.1502
       6687.1751  1.75007e-13  1.87544e-15      8815.51      94.4703
       6688.2756  1.76719e-13  1.88509e-15      8904.30      94.9840
       6689.3760  1.78803e-13  1.89474e-15      9011.95      95.4980
       6690.4765  1.77566e-13  1.88970e-15      8952.18      95.2714
       6691.5769  1.77944e-13  1.89206e-15      8973.86      95.4181
       6692.6774  1.74644e-13  1.87535e-15      8809.99      94.6028
       6693.7778  1.73630e-13  1.86855e-15      8761.41      94.2871
       6694.8782  1.72270e-13  1.86000e-15      8695.29      93.8829
       6695.9787  1.70404e-13  1.84966e-15      8603.62      93.3883
       6697.0791  1.70721e-13  1.85146e-15      8622.16      93.5065
       6698.1796  1.70835e-13  1.85332e-15      8630.38      93.6275
       6699.2800  1.69725e-13  1.84517e-15      8576.83      93.2433
       6700.3805  1.69356e-13  1.84273e-15      8561.00      93.1505
       6701.4809  1.72227e-13  1.85638e-15      8709.69      93.8790
       6702.5814  1.74921e-13  1.86839e-15      8851.57      94.5467
       6703.6818  1.71865e-13  1.85568e-15      8702.50      93.9632
       6704.7823  1.76340e-13  1.88067e-15      8934.78      95.2893
       6705.8827  1.72413e-13  1.85833e-15      8741.38      94.2177
       6706.9832  1.76055e-13  1.87390e-15      8931.72      95.0677
       6708.0836  1.72767e-13  1.85548e-15      8770.51      94.1935
       6709.1841  1.76370e-13  1.87555e-15      8959.55      95.2771
       6710.2845  1.74429e-13  1.86533e-15      8867.14      94.8245
       6711.3849  1.74715e-13  1.86681e-15      8888.48      94.9721
       6712.4854  1.75743e-13  1.87125e-15      8947.58      95.2709
       6713.5858  1.76163e-13  1.87223e-15      8975.82      95.3933
       6714.6863  1.72383e-13  1.85210e-15      8789.94      94.4402
       6715.7867  1.66104e-13  1.81989e-15      8476.27      92.8688
       6716.8872  1.66239e-13  1.82141e-15      8489.62      93.0171
       6717.9876  1.69852e-13  1.83601e-15      8680.79      93.8348
       6719.0881  1.62142e-13  1.79350e-15      8293.07      91.7324
       6720.1885  1.63296e-13  1.79959e-15      8357.72      92.1051
       6721.2890  1.59970e-13  1.78192e-15      8191.10      91.2410
       6722.3894  1.59070e-13  1.77160e-15      8148.13      90.7477
       6723.4899  1.54080e-13  1.74697e-15      7895.51      89.5194
       6724.5903  1.51849e-13  1.73215e-15      7784.07      88.7933
       6725.6908  1.48068e-13  1.71054e-15      7593.08      87.7186
       6726.7912  1.46140e-13  1.70162e-15      7496.92      87.2927
       6727.8917  1.44082e-13  1.68628e-15      7393.98      86.5365
       6728.9921  1.38951e-13  1.65496e-15      7133.27      84.9598
       6730.0925  1.39230e-13  1.65962e-15      7150.13      85.2297
       6731.1930  1.36056e-13  1.64430e-15      6989.62      84.4728
       6732.2934  1.37037e-13  1.64619e-15      7042.27      84.5969
       6733.3939  1.34015e-13  1.62683e-15      6888.98      83.6267
       6734.4943  1.34578e-13  1.62824e-15      6919.58      83.7188
       6735.5948  1.35037e-13  1.63315e-15      6944.80      83.9908
       6736.6952  1.38176e-13  1.64861e-15      7107.91      84.8059
       6737.7957  1.37391e-13  1.64469e-15      7068.56      84.6166
       6738.8961  1.38927e-13  1.65575e-15      7147.47      85.1849
       6739.9966  1.38927e-13  1.65863e-15      7147.39      85.3315
       6741.0970  1.41568e-13  1.67205e-15      7282.38      86.0119
       6742.1975  1.43706e-13  1.68611e-15      7391.10      86.7201
       6743.2979  1.47137e-13  1.70075e-15      7566.36      87.4593
       6744.3984  1.48573e-13  1.70964e-15      7640.61      87.9214
       6745.4988  1.51841e-13  1.72910e-15      7809.59      88.9323
       6746.5992  1.52577e-13  1.73298e-15      7848.40      89.1427
       6747.6997  1.53219e-13  1.73811e-15      7882.41      89.4175
       6748.8001  1.54731e-13  1.74556e-15      7960.47      89.8038
       6749.9006  1.59856e-13  1.77253e-15      8223.84      91.1884
       6751.0010  1.59336e-13  1.77097e-15      8196.87      91.1059
       6752.1015  1.60422e-13  1.77621e-15      8252.33      91.3708
       6753.2019  1.62984e-13  1.79295e-15      8383.66      92.2265
       6754.3024  1.63820e-13  1.79603e-15      8426.04      92.3781
       6755.4028  1.65302e-13  1.80209e-15      8501.11      92.6774
       6756.5033  1.67505e-13  1.81623e-15      8613.25      93.3917
       6757.6037  1.66139e-13  1.80776e-15      8541.81      92.9436
       6758.7042  1.68801e-13  1.82328e-15      8677.50      93.7288
       6759.8046  1.69150e-13  1.82467e-15      8694.26      93.7877
       6760.9051  1.72443e-13  1.84408e-15      8863.17      94.7809
       6762.0055  1.75808e-13  1.86020e-15      9037.10      95.6206
       6763.1060  1.76338e-13  1.86241e-15      9065.39      95.7453
       6764.2064  1.74969e-13  1.85547e-15      8997.02      95.4099
       6765.3068  1.80681e-13  1.88495e-15      9293.30      96.9520
       6766.4073  1.79874e-13  1.88234e-15      9255.14      96.8530
       6767.5077  1.78863e-13  1.87732e-15      9206.59      96.6311
       6768.6082  1.75361e-13  1.85777e-15      9029.75      95.6605
       6769.7086  1.78013e-13  1.87114e-15      9169.75      96.3853
       6770.8091  1.80271e-13  1.87941e-15      9289.54      96.8479
       6771.9095  1.80632e-13  1.88125e-15      9312.50      96.9884
       6773.0100  1.84916e-13  1.90610e-15      9538.66      98.3237
       6774.1104  1.82568e-13  1.89322e-15      9422.78      97.7139
       6775.2109  1.80993e-13  1.88229e-15      9347.16      97.2086
       6776.3113  1.80642e-13  1.87815e-15      9334.82      97.0546
       6777.4118  1.84260e-13  1.89597e-15      9527.81      98.0378
       6778.5122  1.84483e-13  1.89813e-15      9545.95      98.2174
       6779.6127  1.87440e-13  1.91185e-15      9705.68      98.9960
       6780.7131  1.84433e-13  1.89763e-15      9556.59      98.3276
       6781.8136  1.83824e-13  1.89340e-15      9531.62      98.1763
       6782.9140  1.85406e-13  1.89835e-15      9620.28      98.5007
       6784.0144  1.86079e-13  1.90311e-15      9661.85      98.8162
       6785.1149  1.84113e-13  1.89402e-15      9566.40      98.4121
       6786.2153  1.85085e-13  1.89704e-15      9623.54      98.6371
       6787.3158  1.84982e-13  1.89664e-15      9624.86      98.6850
       6788.4162  1.83859e-13  1.88936e-15      9573.10      98.3740
       6789.5167  1.85274e-13  1.89478e-15      9652.83      98.7183
       6790.6171  1.85307e-13  1.89483e-15      9659.92      98.7763
       6791.7176  1.82630e-13  1.88234e-15      9524.11      98.1632
       6792.8180  1.85904e-13  1.89775e-15      9697.97      98.9991
       6793.9185  1.86212e-13  1.89783e-15      9717.10      99.0344
       6795.0189  1.84011e-13  1.88776e-15      9605.12      98.5384
       6796.1194  1.85439e-13  1.89672e-15      9679.54      99.0052
       6797.2198  1.85255e-13  1.89583e-15      9668.09      98.9397
       6798.3203  1.82665e-13  1.88264e-15      9530.69      98.2282
       6799.4207  1.83942e-13  1.88776e-15      9595.12      98.4723
       6800.5211  1.82794e-13  1.88206e-15      9532.89      98.1513
       6801.6216  1.82335e-13  1.88006e-15      9506.44      98.0213
       6802.7220  1.81931e-13  1.87946e-15      9482.84      97.9634
       6803.8225  1.82042e-13  1.88010e-15      9485.65      97.9664
       6804.9229  1.83304e-13  1.88561e-15      9547.96      98.2178
       6806.0234  1.83332e-13  1.88456e-15      9544.83      98.1161
       6807.1238  1.79659e-13  1.86830e-15      9349.08      97.2225
       6808.2243  1.79928e-13  1.87178e-15      9358.55      97.3563
       6809.3247  1.80482e-13  1.87559e-15      9382.81      97.5069
       6810.4252  1.79858e-13  1.87188e-15      9345.79      97.2671
       6811.5256  1.82726e-13  1.88855e-15      9489.91      98.0822
       6812.6261  1.84201e-13  1.89388e-15      9562.03      98.3130
       6813.7265  1.83203e-13  1.88683e-15      9505.27      97.8960
       6814.8270  1.84104e-13  1.89441e-15      9547.89      98.2468
       6815.9274  1.82479e-13  1.88759e-15      9460.23      97.8580
       6817.0279  1.83433e-13  1.89196e-15      9506.33      98.0500
       6818.1283  1.82249e-13  1.88721e-15      9441.80      97.7710
       6819.2287  1.80934e-13  1.88039e-15      9373.49      97.4154
       6820.3292  1.83041e-13  1.89158e-15      9481.36      97.9822
       6821.4296  1.84281e-13  1.89881e-15      9544.67      98.3476
       6822.5301  1.84206e-13  1.89935e-15      9539.49      98.3615
       6823.6305  1.80999e-13  1.88294e-15      9371.46      97.4917
       6824.7310  1.79476e-13  1.87424e-15      9290.39      97.0179
       6825.8314  1.79299e-13  1.87385e-15      9277.87      96.9624
       6826.9319  1.77519e-13  1.86677e-15      9182.13      96.5583
       6828.0323  1.77959e-13  1.87026e-15      9201.21      96.7003
       6829.1328  1.76244e-13  1.86464e-15      9109.46      96.3766
       6830.2332  1.75408e-13  1.86176e-15      9062.81      96.1915
       6831.3337  1.75742e-13  1.85983e-15      9076.20      96.0506
       6832.4341  1.74003e-13  1.85067e-15      8981.32      95.5241
       6833.5346  1.71640e-13  1.84160e-15      8854.37      95.0022
       6834.6350  1.69567e-13  1.83099e-15      8742.80      94.4047
       6835.7354  1.70183e-13  1.83240e-15      8769.98      94.4287
       6836.8359  1.69296e-13  1.82682e-15      8720.37      94.0987
       6837.9363  1.68449e-13  1.82040e-15      8673.02      93.7279
       6839.0368  1.67832e-13  1.81588e-15      8637.56      93.4550
       6840.1372  1.65453e-13  1.80522e-15      8511.47      92.8666
       6841.2377  1.65212e-13  1.80488e-15      8495.25      92.8074
       6842.3381  1.64185e-13  1.79991e-15      8438.69      92.5105
       6843.4386  1.61717e-13  1.78698e-15      8310.61      91.8328
       6844.5390  1.60247e-13  1.77762e-15      8233.92      91.3389
       6845.6395  1.60678e-13  1.77802e-15      8255.22      91.3503
       6846.7399  1.61804e-13  1.78212e-15      8312.96      91.5594
       6847.8404  1.61559e-13  1.78216e-15      8300.99      91.5681
       6848.9408  1.59911e-13  1.77330e-15      8218.00      91.1321
       6850.0413  1.57600e-13  1.76010e-15      8100.14      90.4638
       6851.1417  1.58930e-13  1.76884e-15      8167.75      90.9041
       6852.2422  1.60256e-13  1.77739e-15      8230.58      91.2850
       6853.3426  1.58821e-13  1.77122e-15      8140.97      90.7904
       6854.4430  1.56112e-13  1.75854e-15      7967.17      89.7470
       6855.5435  1.58491e-13  1.77691e-15      8038.76      90.1261
       6856.6439  1.59328e-13  1.78870e-15      8031.05      90.1605
       6857.7444  1.58885e-13  1.79121e-15      7958.63      89.7224
       6858.8448  1.56810e-13  1.78496e-15      7805.16      88.8457
       6859.9453  1.56764e-13  1.79083e-15      7753.32      88.5715
       6861.0457  1.59515e-13  1.81345e-15      7838.87      89.1160
       6862.1462  1.59824e-13  1.82480e-15      7803.39      89.0954
       6863.2466  1.59352e-13  1.83340e-15      7729.73      88.9332
       6864.3471  1.59934e-13  1.84604e-15      7707.23      88.9610
       6865.4475  1.55727e-13  1.82254e-15      7455.06      87.2499
       6866.5480  1.27902e-13  1.63874e-15      6082.37      77.9300
       6867.6484  7.92039e-14  1.30942e-15      3741.31      61.8523
       6868.7489  7.04718e-14  1.23953e-15      3306.37      58.1556
       6869.8493  6.15553e-14  1.16227e-15      2868.37      54.1597
       6870.9497  7.58570e-14  1.27019e-15      3510.55      58.7826
       6872.0502  1.19401e-13  1.62173e-15      5487.50      74.5320
       6873.1506  1.23533e-13  1.65545e-15      5638.89      75.5661
       6874.2511  1.31077e-13  1.71201e-15      5944.34      77.6399
       6875.3515  1.33847e-13  1.73664e-15      6034.61      78.2980
       6876.4520  1.39871e-13  1.77574e-15      6279.05      79.7163
       6877.5524  1.41795e-13  1.78883e-15      6355.96      80.1844
       6878.6529  1.50229e-13  1.84076e-15      6738.83      82.5709
       6879.7533  1.57528e-13  1.88580e-15      7071.25      84.6515
       6880.8538  1.62675e-13  1.91699e-15      7307.51      86.1128
       6881.9542  1.69889e-13  1.95582e-15      7637.02      87.9199
       6883.0547  1.69630e-13  1.95226e-15      7630.85      87.8229
       6884.1551  1.64742e-13  1.92289e-15      7416.25      86.5633
       6885.2556  1.61226e-13  1.90263e-15      7263.15      85.7125
       6886.3560  1.55201e-13  1.86727e-15      6996.74      84.1800
       6887.4565  1.55531e-13  1.86834e-15      7016.63      84.2886
       6888.5569  1.59444e-13  1.89031e-15      7198.68      85.3450
       6889.6573  1.55328e-13  1.86615e-15      7019.79      84.3375
       6890.7578  1.59286e-13  1.88921e-15      7207.47      85.4840
       6891.8582  1.64221e-13  1.91539e-15      7442.96      86.8107
       6892.9587  1.56857e-13  1.86899e-15      7123.61      84.8798
       6894.0591  1.60530e-13  1.88817e-15      7306.34      85.9380
       6895.1596  1.66021e-13  1.91575e-15      7573.35      87.3905
       6896.2600  1.59776e-13  1.88005e-15      7305.69      85.9647
       6897.3605  1.57615e-13  1.86690e-15      7224.11      85.5670
       6898.4609  1.67807e-13  1.92297e-15      7710.09      88.3535
       6899.5614  1.68369e-13  1.92316e-15      7757.03      88.6032
       6900.6618  1.58669e-13  1.86785e-15      7331.23      86.3031
       6901.7623  1.60874e-13  1.87750e-15      7454.87      87.0032
       6902.8627  1.68681e-13  1.91725e-15      7840.23      89.1131
       6903.9632  1.65487e-13  1.89388e-15      7715.09      88.2935
       6905.0636  1.62212e-13  1.87138e-15      7585.78      87.5140
       6906.1640  1.68107e-13  1.90263e-15      7885.82      89.2514
       6907.2645  1.73231e-13  1.92857e-15      8151.78      90.7531
       6908.3649  1.68228e-13  1.89662e-15      7942.35      89.5429
       6909.4654  1.62554e-13  1.86001e-15      7700.13      88.1084
       6910.5658  1.69170e-13  1.89605e-15      8040.82      90.1210
       6911.6663  1.72230e-13  1.91507e-15      8216.01      91.3561
       6912.7667  1.69508e-13  1.89849e-15      8113.91      90.8761
       6913.8672  1.61398e-13  1.84697e-15      7750.78      88.6967
       6914.9676  1.66242e-13  1.86932e-15      8006.99      90.0354
       6916.0681  1.67870e-13  1.87501e-15      8106.25      90.5420
       6917.1685  1.68948e-13  1.87752e-15      8178.11      90.8833
       6918.2690  1.66469e-13  1.86237e-15      8077.03      90.3618
       6919.3694  1.61559e-13  1.83426e-15      7856.46      89.1981
       6920.4699  1.62938e-13  1.83719e-15      7941.11      89.5392
       6921.5703  1.63681e-13  1.84323e-15      7994.47      90.0269
       6922.6708  1.65887e-13  1.85939e-15      8117.51      90.9873
       6923.7712  1.62444e-13  1.84022e-15      7962.85      90.2059
       6924.8716  1.60284e-13  1.81996e-15      7870.20      89.3631
       6925.9721  1.61857e-13  1.82547e-15      7960.15      89.7767
       6927.0725  1.63643e-13  1.82945e-15      8060.69      90.1148
       6928.1730  1.61475e-13  1.81605e-15      7966.02      89.5908
       6929.2734  1.58339e-13  1.79899e-15      7823.05      88.8825
       6930.3739  1.58631e-13  1.80094e-15      7848.85      89.1082
       6931.4743  1.58390e-13  1.79447e-15      7858.27      89.0297
       6932.5748  1.61290e-13  1.81168e-15      8008.06      89.9497
       6933.6752  1.58818e-13  1.79487e-15      7891.15      89.1809
       6934.7757  1.57099e-13  1.78577e-15      7811.48      88.7946
       6935.8761  1.54630e-13  1.77607e-15      7694.39      88.3776
       6936.9766  1.51563e-13  1.75698e-15      7547.38      87.4921
       6938.0770  1.46431e-13  1.72887e-15      7297.22      86.1560
       6939.1775  1.29675e-13  1.63315e-15      6467.00      81.4465
       6940.2779  1.49832e-13  1.75397e-15      7477.77      87.5365
       6941.3783  5.98301e-15  1.30007e-16      298.819      6.49317
